%OpenBCI Raw EEG Data
%Number of channels = 4
%Sample Rate = 200.0 Hz
%First Column = SampleIndex
%Last Column = Timestamp 
%Other Columns = EEG data in microvolts followed by Accel Data (in G) interleaved with Aux Data
0, 0.00, -99.88, 0.00, 0.00, 0.000, 0.000, 0.000, 16:19:00.481, 1556921940481
1, 0.00, -97.44, 0.00, 0.00, 0.000, 0.000, 0.000, 16:19:00.495, 1556921940495
2, 0.00, -89.26, 0.00, 0.00, 0.000, 0.000, 0.000, 16:19:00.495, 1556921940495
3, 0.00, -93.79, 0.00, 0.00, 0.000, 0.000, 0.000, 16:19:00.509, 1556921940509
4, 0.00, -94.08, 0.00, 0.00, 0.000, 0.000, 0.000, 16:19:00.509, 1556921940509
5, 0.00, -76.29, 0.00, 0.00, 0.000, 0.000, 0.000, 16:19:00.511, 1556921940511
6, 0.00, -69.36, 0.00, 0.00, 0.000, 0.000, 0.000, 16:19:00.511, 1556921940511
7, 0.00, -70.90, 0.00, 0.00, 0.000, 0.000, 0.000, 16:19:00.524, 1556921940524
8, 0.00, -70.59, 0.00, 0.00, 0.000, 0.000, 0.000, 16:19:00.524, 1556921940524
9, 0.00, -62.38, 0.00, 0.00, 0.000, 0.000, 0.000, 16:19:00.539, 1556921940539
10, 0.00, -61.95, 0.00, 0.00, 0.000, 0.000, 0.000, 16:19:00.539, 1556921940539
11, 0.00, -59.61, 0.00, 0.00, 0.000, 0.000, 0.000, 16:19:00.540, 1556921940540
12, 0.00, -57.72, 0.00, 0.00, 0.000, 0.000, 0.000, 16:19:00.540, 1556921940540
13, 0.00, -64.16, 0.00, 0.00, 0.000, 0.000, 0.000, 16:19:00.554, 1556921940554
14, 0.00, -71.38, 0.00, 0.00, 0.000, 0.000, 0.000, 16:19:00.554, 1556921940554
15, 0.00, -66.34, 0.00, 0.00, 0.000, 0.000, 0.000, 16:19:00.570, 1556921940570
16, 0.00, -68.56, 0.00, 0.00, 0.000, 0.000, 0.000, 16:19:00.570, 1556921940570
17, 0.00, -72.45, 0.00, 0.00, 0.000, 0.000, 0.000, 16:19:00.574, 1556921940574
18, 0.00, -68.06, 0.00, 0.00, 0.000, 0.000, 0.000, 16:19:00.574, 1556921940574
19, 0.00, -70.11, 0.00, 0.00, 0.000, 0.000, 0.000, 16:19:00.600, 1556921940600
20, 0.00, -69.02, 0.00, 0.00, 0.000, 0.000, 0.000, 16:19:00.600, 1556921940600
21, 0.00, -63.14, 0.00, 0.00, 0.000, 0.000, 0.000, 16:19:00.602, 1556921940602
22, 0.00, -55.17, 0.00, 0.00, 0.000, 0.000, 0.000, 16:19:00.602, 1556921940602
23, 0.00, -43.81, 0.00, 0.00, 0.000, 0.000, 0.000, 16:19:00.603, 1556921940603
24, 0.00, -35.14, 0.00, 0.00, 0.000, 0.000, 0.000, 16:19:00.603, 1556921940603
25, 0.00, -31.96, 0.00, 0.00, 0.000, 0.000, 0.000, 16:19:00.615, 1556921940615
26, 0.00, -30.61, 0.00, 0.00, 0.000, 0.000, 0.000, 16:19:00.616, 1556921940616
27, 0.00, -27.90, 0.00, 0.00, 0.000, 0.000, 0.000, 16:19:00.647, 1556921940647
28, 0.00, -19.46, 0.00, 0.00, 0.000, 0.000, 0.000, 16:19:00.647, 1556921940647
29, 0.00, -11.54, 0.00, 0.00, 0.000, 0.000, 0.000, 16:19:00.655, 1556921940655
30, 0.00, -4.91, 0.00, 0.00, 0.000, 0.000, 0.000, 16:19:00.655, 1556921940655
31, 0.00, -5.02, 0.00, 0.00, 0.000, 0.000, 0.000, 16:19:00.657, 1556921940657
32, 0.00, 0.75, 0.00, 0.00, 0.000, 0.000, 0.000, 16:19:00.657, 1556921940657
33, 0.00, 11.76, 0.00, 0.00, 0.000, 0.000, 0.000, 16:19:00.670, 1556921940670
34, 0.00, 12.84, 0.00, 0.00, 0.000, 0.000, 0.000, 16:19:00.670, 1556921940670
35, 0.00, 22.05, 0.00, 0.00, 0.000, 0.000, 0.000, 16:19:00.670, 1556921940670
36, 0.00, 22.35, 0.00, 0.00, 0.000, 0.000, 0.000, 16:19:00.670, 1556921940670
37, 0.00, 17.62, 0.00, 0.00, 0.000, 0.000, 0.000, 16:19:00.674, 1556921940674
38, 0.00, 18.30, 0.00, 0.00, 0.000, 0.000, 0.000, 16:19:00.674, 1556921940674
39, 0.00, 16.24, 0.00, 0.00, 0.000, 0.000, 0.000, 16:19:00.689, 1556921940689
40, 0.00, 16.08, 0.00, 0.00, 0.000, 0.000, 0.000, 16:19:00.689, 1556921940689
41, 0.00, 17.80, 0.00, 0.00, 0.000, 0.000, 0.000, 16:19:00.691, 1556921940691
42, 0.00, 21.38, 0.00, 0.00, 0.000, 0.000, 0.000, 16:19:00.691, 1556921940691
43, 0.00, 13.13, 0.00, 0.00, 0.000, 0.000, 0.000, 16:19:00.704, 1556921940704
44, 0.00, 5.76, 0.00, 0.00, 0.000, 0.000, 0.000, 16:19:00.704, 1556921940704
45, 0.00, 4.05, 0.00, 0.00, 0.000, 0.000, 0.000, 16:19:00.720, 1556921940720
46, 0.00, -3.75, 0.00, 0.00, 0.000, 0.000, 0.000, 16:19:00.720, 1556921940720
47, 0.00, -16.77, 0.00, 0.00, 0.000, 0.000, 0.000, 16:19:00.724, 1556921940724
48, 0.00, -17.03, 0.00, 0.00, 0.000, 0.000, 0.000, 16:19:00.724, 1556921940724
49, 0.00, -17.11, 0.00, 0.00, 0.000, 0.000, 0.000, 16:19:00.735, 1556921940735
50, 0.00, -33.95, 0.00, 0.00, 0.000, 0.000, 0.000, 16:19:00.735, 1556921940735
51, 0.00, -26.84, 0.00, 0.00, 0.000, 0.000, 0.000, 16:19:00.751, 1556921940751
52, 0.00, -25.55, 0.00, 0.00, 0.000, 0.000, 0.000, 16:19:00.751, 1556921940751
53, 0.00, -27.20, 0.00, 0.00, 0.000, 0.000, 0.000, 16:19:00.758, 1556921940758
54, 0.00, -31.72, 0.00, 0.00, 0.000, 0.000, 0.000, 16:19:00.758, 1556921940758
55, 0.00, -30.91, 0.00, 0.00, 0.000, 0.000, 0.000, 16:19:00.769, 1556921940769
56, 0.00, -43.37, 0.00, 0.00, 0.000, 0.000, 0.000, 16:19:00.769, 1556921940769
57, 0.00, -53.39, 0.00, 0.00, 0.000, 0.000, 0.000, 16:19:00.786, 1556921940786
58, 0.00, -55.12, 0.00, 0.00, 0.000, 0.000, 0.000, 16:19:00.786, 1556921940786
59, 0.00, -51.01, 0.00, 0.00, 0.000, 0.000, 0.000, 16:19:00.789, 1556921940789
60, 0.00, -53.28, 0.00, 0.00, 0.000, 0.000, 0.000, 16:19:00.789, 1556921940789
61, 0.00, -51.24, 0.00, 0.00, 0.000, 0.000, 0.000, 16:19:00.794, 1556921940794
62, 0.00, -51.81, 0.00, 0.00, 0.000, 0.000, 0.000, 16:19:00.794, 1556921940794
63, 0.00, -52.47, 0.00, 0.00, 0.000, 0.000, 0.000, 16:19:00.810, 1556921940810
64, 0.00, -55.16, 0.00, 0.00, 0.000, 0.000, 0.000, 16:19:00.810, 1556921940810
65, 0.00, -50.10, 0.00, 0.00, 0.000, 0.000, 0.000, 16:19:00.811, 1556921940811
66, 0.00, -40.63, 0.00, 0.00, 0.000, 0.000, 0.000, 16:19:00.811, 1556921940811
67, 0.00, -41.82, 0.00, 0.00, 0.000, 0.000, 0.000, 16:19:00.825, 1556921940825
68, 0.00, -35.75, 0.00, 0.00, 0.000, 0.000, 0.000, 16:19:00.825, 1556921940825
69, 0.00, -35.40, 0.00, 0.00, 0.000, 0.000, 0.000, 16:19:00.840, 1556921940840
70, 0.00, -36.54, 0.00, 0.00, 0.000, 0.000, 0.000, 16:19:00.840, 1556921940840
71, 0.00, -35.04, 0.00, 0.00, 0.000, 0.000, 0.000, 16:19:00.841, 1556921940841
72, 0.00, -37.37, 0.00, 0.00, 0.000, 0.000, 0.000, 16:19:00.841, 1556921940841
73, 0.00, -46.15, 0.00, 0.00, 0.000, 0.000, 0.000, 16:19:00.854, 1556921940854
74, 0.00, -52.37, 0.00, 0.00, 0.000, 0.000, 0.000, 16:19:00.854, 1556921940854
75, 0.00, -57.86, 0.00, 0.00, 0.000, 0.000, 0.000, 16:19:00.870, 1556921940870
76, 0.00, -62.30, 0.00, 0.00, 0.000, 0.000, 0.000, 16:19:00.870, 1556921940870
77, 0.00, -61.18, 0.00, 0.00, 0.000, 0.000, 0.000, 16:19:00.871, 1556921940871
78, 0.00, -59.38, 0.00, 0.00, 0.000, 0.000, 0.000, 16:19:00.871, 1556921940871
79, 0.00, -57.57, 0.00, 0.00, 0.000, 0.000, 0.000, 16:19:00.884, 1556921940884
80, 0.00, -60.49, 0.00, 0.00, 0.000, 0.000, 0.000, 16:19:00.884, 1556921940884
81, 0.00, -59.97, 0.00, 0.00, 0.000, 0.000, 0.000, 16:19:00.901, 1556921940901
82, 0.00, -52.05, 0.00, 0.00, 0.000, 0.000, 0.000, 16:19:00.901, 1556921940901
83, 0.00, -49.94, 0.00, 0.00, 0.000, 0.000, 0.000, 16:19:00.905, 1556921940905
84, 0.00, -50.78, 0.00, 0.00, 0.000, 0.000, 0.000, 16:19:00.905, 1556921940905
85, 0.00, -48.37, 0.00, 0.00, 0.000, 0.000, 0.000, 16:19:00.936, 1556921940936
86, 0.00, -52.12, 0.00, 0.00, 0.000, 0.000, 0.000, 16:19:00.936, 1556921940936
87, 0.00, -45.66, 0.00, 0.00, 0.000, 0.000, 0.000, 16:19:00.940, 1556921940940
88, 0.00, -46.16, 0.00, 0.00, 0.000, 0.000, 0.000, 16:19:00.940, 1556921940940
89, 0.00, -44.60, 0.00, 0.00, 0.000, 0.000, 0.000, 16:19:00.941, 1556921940941
90, 0.00, -46.13, 0.00, 0.00, 0.000, 0.000, 0.000, 16:19:00.941, 1556921940941
91, 0.00, -48.15, 0.00, 0.00, 0.000, 0.000, 0.000, 16:19:00.963, 1556921940963
92, 0.00, -47.38, 0.00, 0.00, 0.000, 0.000, 0.000, 16:19:00.963, 1556921940963
93, 0.00, -51.91, 0.00, 0.00, 0.000, 0.000, 0.000, 16:19:00.966, 1556921940966
94, 0.00, -54.41, 0.00, 0.00, 0.000, 0.000, 0.000, 16:19:00.966, 1556921940966
95, 0.00, -48.21, 0.00, 0.00, 0.000, 0.000, 0.000, 16:19:00.967, 1556921940967
96, 0.00, -41.72, 0.00, 0.00, 0.000, 0.000, 0.000, 16:19:00.967, 1556921940967
97, 0.00, -45.16, 0.00, 0.00, 0.000, 0.000, 0.000, 16:19:00.974, 1556921940974
98, 0.00, -38.66, 0.00, 0.00, 0.000, 0.000, 0.000, 16:19:00.974, 1556921940974
99, 0.00, -35.90, 0.00, 0.00, 0.000, 0.000, 0.000, 16:19:00.990, 1556921940990
100, 0.00, -20.55, 0.00, 0.00, 0.000, 0.000, 0.000, 16:19:00.990, 1556921940990
101, 0.00, -25.42, 0.00, 0.00, 0.000, 0.000, 0.000, 16:19:00.991, 1556921940991
102, 0.00, -24.52, 0.00, 0.00, 0.000, 0.000, 0.000, 16:19:00.992, 1556921940992
103, 0.00, -17.31, 0.00, 0.00, 0.000, 0.000, 0.000, 16:19:01.003, 1556921941003
104, 0.00, -14.43, 0.00, 0.00, 0.000, 0.000, 0.000, 16:19:01.003, 1556921941003
105, 0.00, -10.86, 0.00, 0.00, 0.000, 0.000, 0.000, 16:19:01.019, 1556921941019
106, 0.00, -5.84, 0.00, 0.00, 0.000, 0.000, 0.000, 16:19:01.019, 1556921941019
107, 0.00, -8.88, 0.00, 0.00, 0.000, 0.000, 0.000, 16:19:01.020, 1556921941020
108, 0.00, -6.82, 0.00, 0.00, 0.000, 0.000, 0.000, 16:19:01.020, 1556921941020
109, 0.00, -0.32, 0.00, 0.00, 0.000, 0.000, 0.000, 16:19:01.034, 1556921941034
110, 0.00, 3.35, 0.00, 0.00, 0.000, 0.000, 0.000, 16:19:01.034, 1556921941034
111, 0.00, 8.05, 0.00, 0.00, 0.000, 0.000, 0.000, 16:19:01.049, 1556921941049
112, 0.00, 15.94, 0.00, 0.00, 0.000, 0.000, 0.000, 16:19:01.049, 1556921941049
113, 0.00, 22.02, 0.00, 0.00, 0.000, 0.000, 0.000, 16:19:01.051, 1556921941051
114, 0.00, 27.33, 0.00, 0.00, 0.000, 0.000, 0.000, 16:19:01.051, 1556921941051
115, 0.00, 32.53, 0.00, 0.00, 0.000, 0.000, 0.000, 16:19:01.066, 1556921941066
116, 0.00, 35.69, 0.00, 0.00, 0.000, 0.000, 0.000, 16:19:01.066, 1556921941066
117, 0.00, 28.97, 0.00, 0.00, 0.000, 0.000, 0.000, 16:19:01.079, 1556921941079
118, 0.00, 28.75, 0.00, 0.00, 0.000, 0.000, 0.000, 16:19:01.079, 1556921941079
119, 0.00, 21.92, 0.00, 0.00, 0.000, 0.000, 0.000, 16:19:01.080, 1556921941080
120, 0.00, 15.97, 0.00, 0.00, 0.000, 0.000, 0.000, 16:19:01.080, 1556921941080
121, 0.00, 15.28, 0.00, 0.00, 0.000, 0.000, 0.000, 16:19:01.095, 1556921941095
122, 0.00, 16.31, 0.00, 0.00, 0.000, 0.000, 0.000, 16:19:01.095, 1556921941095
123, 0.00, 6.37, 0.00, 0.00, 0.000, 0.000, 0.000, 16:19:01.109, 1556921941109
124, 0.00, 5.45, 0.00, 0.00, 0.000, 0.000, 0.000, 16:19:01.109, 1556921941109
125, 0.00, 12.16, 0.00, 0.00, 0.000, 0.000, 0.000, 16:19:01.110, 1556921941110
126, 0.00, 14.11, 0.00, 0.00, 0.000, 0.000, 0.000, 16:19:01.110, 1556921941110
127, 0.00, 9.50, 0.00, 0.00, 0.000, 0.000, 0.000, 16:19:01.124, 1556921941124
128, 0.00, 14.03, 0.00, 0.00, 0.000, 0.000, 0.000, 16:19:01.124, 1556921941124
129, 0.00, 13.32, 0.00, 0.00, 0.000, 0.000, 0.000, 16:19:01.139, 1556921941139
130, 0.00, 15.73, 0.00, 0.00, 0.000, 0.000, 0.000, 16:19:01.139, 1556921941139
131, 0.00, 23.65, 0.00, 0.00, 0.000, 0.000, 0.000, 16:19:01.140, 1556921941140
132, 0.00, 27.77, 0.00, 0.00, 0.000, 0.000, 0.000, 16:19:01.140, 1556921941140
133, 0.00, 34.57, 0.00, 0.00, 0.000, 0.000, 0.000, 16:19:01.154, 1556921941154
134, 0.00, 39.28, 0.00, 0.00, 0.000, 0.000, 0.000, 16:19:01.154, 1556921941154
135, 0.00, 36.61, 0.00, 0.00, 0.000, 0.000, 0.000, 16:19:01.169, 1556921941169
136, 0.00, 33.43, 0.00, 0.00, 0.000, 0.000, 0.000, 16:19:01.169, 1556921941169
137, 0.00, 33.66, 0.00, 0.00, 0.000, 0.000, 0.000, 16:19:01.170, 1556921941170
138, 0.00, 30.36, 0.00, 0.00, 0.000, 0.000, 0.000, 16:19:01.170, 1556921941170
139, 0.00, 28.19, 0.00, 0.00, 0.000, 0.000, 0.000, 16:19:01.205, 1556921941205
140, 0.00, 31.13, 0.00, 0.00, 0.000, 0.000, 0.000, 16:19:01.205, 1556921941205
141, 0.00, 27.44, 0.00, 0.00, 0.000, 0.000, 0.000, 16:19:01.210, 1556921941210
142, 0.00, 25.76, 0.00, 0.00, 0.000, 0.000, 0.000, 16:19:01.210, 1556921941210
143, 0.00, 26.41, 0.00, 0.00, 0.000, 0.000, 0.000, 16:19:01.211, 1556921941211
144, 0.00, 28.96, 0.00, 0.00, 0.000, 0.000, 0.000, 16:19:01.211, 1556921941211
145, 0.00, 28.52, 0.00, 0.00, 0.000, 0.000, 0.000, 16:19:01.214, 1556921941214
146, 0.00, 25.67, 0.00, 0.00, 0.000, 0.000, 0.000, 16:19:01.214, 1556921941214
147, 0.00, 24.81, 0.00, 0.00, 0.000, 0.000, 0.000, 16:19:01.230, 1556921941230
148, 0.00, 21.85, 0.00, 0.00, 0.000, 0.000, 0.000, 16:19:01.230, 1556921941230
149, 0.00, 19.89, 0.00, 0.00, 0.000, 0.000, 0.000, 16:19:01.231, 1556921941231
150, 0.00, 19.95, 0.00, 0.00, 0.000, 0.000, 0.000, 16:19:01.231, 1556921941231
151, 0.00, 19.85, 0.00, 0.00, 0.000, 0.000, 0.000, 16:19:01.245, 1556921941245
152, 0.00, 19.00, 0.00, 0.00, 0.000, 0.000, 0.000, 16:19:01.245, 1556921941245
153, 0.00, 17.52, 0.00, 0.00, 0.000, 0.000, 0.000, 16:19:01.293, 1556921941293
154, 0.00, 11.62, 0.00, 0.00, 0.000, 0.000, 0.000, 16:19:01.293, 1556921941293
155, 0.00, 22.50, 0.00, 0.00, 0.000, 0.000, 0.000, 16:19:01.294, 1556921941294
156, 0.00, 19.12, 0.00, 0.00, 0.000, 0.000, 0.000, 16:19:01.294, 1556921941294
157, 0.00, 11.80, 0.00, 0.00, 0.000, 0.000, 0.000, 16:19:01.295, 1556921941295
158, 0.00, 17.64, 0.00, 0.00, 0.000, 0.000, 0.000, 16:19:01.295, 1556921941295
159, 0.00, 15.38, 0.00, 0.00, 0.000, 0.000, 0.000, 16:19:01.296, 1556921941296
160, 0.00, 14.79, 0.00, 0.00, 0.000, 0.000, 0.000, 16:19:01.296, 1556921941296
161, 0.00, 15.61, 0.00, 0.00, 0.000, 0.000, 0.000, 16:19:01.297, 1556921941297
162, 0.00, 16.28, 0.00, 0.00, 0.000, 0.000, 0.000, 16:19:01.297, 1556921941297
163, 0.00, 8.90, 0.00, 0.00, 0.000, 0.000, 0.000, 16:19:01.304, 1556921941304
164, 0.00, 8.66, 0.00, 0.00, 0.000, 0.000, 0.000, 16:19:01.304, 1556921941304
161, -0.01, 986.05, -4.79, -191.48, 0.000, 0.000, 0.000, 16:19:01.320, 1556921941320
162, 914.15, 495.86, -494.16, -681.68, 0.000, 0.000, 0.000, 16:19:01.320, 1556921941320
167, 914.15, 493.68, -494.16, -681.68, 0.000, 0.000, 0.000, 16:19:01.321, 1556921941321
168, 914.15, 495.88, -494.16, -681.68, 0.000, 0.000, 0.000, 16:19:01.321, 1556921941321
169, 914.15, 497.45, -494.16, -681.68, 0.000, 0.000, 0.000, 16:19:01.334, 1556921941334
170, 914.15, 496.48, -494.16, -681.68, 0.000, 0.000, 0.000, 16:19:01.334, 1556921941334
171, 914.15, 490.18, -494.16, -681.68, 0.000, 0.000, 0.000, 16:19:01.350, 1556921941350
172, 914.15, 483.47, -494.16, -681.68, 0.000, 0.000, 0.000, 16:19:01.350, 1556921941350
173, 914.15, 482.42, -494.16, -681.68, 0.000, 0.000, 0.000, 16:19:01.352, 1556921941352
174, 914.15, 482.60, -494.16, -681.68, 0.000, 0.000, 0.000, 16:19:01.352, 1556921941352
175, 914.15, 483.15, -494.16, -681.68, 0.000, 0.000, 0.000, 16:19:01.368, 1556921941368
176, 914.15, 482.81, -494.16, -681.68, 0.000, 0.000, 0.000, 16:19:01.368, 1556921941368
177, 914.15, 482.28, -494.16, -681.68, 0.000, 0.000, 0.000, 16:19:01.380, 1556921941380
178, 914.15, 484.42, -494.16, -681.68, 0.000, 0.000, 0.000, 16:19:01.380, 1556921941380
179, 914.15, 485.81, -494.16, -681.68, 0.000, 0.000, 0.000, 16:19:01.387, 1556921941387
180, 914.15, 483.37, -494.16, -681.68, 0.000, 0.000, 0.000, 16:19:01.387, 1556921941387
181, 914.15, 486.47, -494.16, -681.68, 0.000, 0.000, 0.000, 16:19:01.409, 1556921941409
182, 914.15, 487.88, -494.16, -681.68, 0.000, 0.000, 0.000, 16:19:01.409, 1556921941409
183, 914.15, 488.39, -494.16, -681.68, 0.000, 0.000, 0.000, 16:19:01.413, 1556921941413
184, 914.15, 490.20, -494.16, -681.68, 0.000, 0.000, 0.000, 16:19:01.413, 1556921941413
185, 914.15, 485.90, -494.16, -681.68, 0.000, 0.000, 0.000, 16:19:01.413, 1556921941413
186, 914.15, 486.45, -494.16, -681.68, 0.000, 0.000, 0.000, 16:19:01.413, 1556921941413
187, 914.15, 485.21, -494.16, -681.68, 0.000, 0.000, 0.000, 16:19:01.437, 1556921941437
188, 914.15, 492.50, -494.16, -681.68, 0.000, 0.000, 0.000, 16:19:01.437, 1556921941437
189, 914.15, 491.95, -494.16, -681.68, 0.000, 0.000, 0.000, 16:19:01.442, 1556921941442
190, 914.15, 497.85, -494.16, -681.68, 0.000, 0.000, 0.000, 16:19:01.442, 1556921941442
191, 914.15, 501.81, -494.16, -681.68, 0.000, 0.000, 0.000, 16:19:01.443, 1556921941443
192, 914.15, 501.44, -494.16, -681.68, 0.000, 0.000, 0.000, 16:19:01.443, 1556921941443
193, 914.15, 505.87, -494.16, -681.68, 0.000, 0.000, 0.000, 16:19:01.453, 1556921941453
194, 914.15, 500.39, -494.16, -681.68, 0.000, 0.000, 0.000, 16:19:01.453, 1556921941453
195, 914.15, 503.80, -494.16, -681.68, 0.000, 0.000, 0.000, 16:19:01.479, 1556921941479
196, 914.15, 503.31, -494.16, -681.68, 0.000, 0.000, 0.000, 16:19:01.479, 1556921941479
197, 914.15, 509.87, -494.16, -681.68, 0.000, 0.000, 0.000, 16:19:01.486, 1556921941486
198, 914.15, 508.48, -494.16, -681.68, 0.000, 0.000, 0.000, 16:19:01.486, 1556921941486
199, 914.15, 511.09, -494.16, -681.68, 0.000, 0.000, 0.000, 16:19:01.486, 1556921941486
200, 914.15, 512.62, -494.16, -681.68, 0.000, 0.000, 0.000, 16:19:01.486, 1556921941486
0, 0.00, 29.33, 0.00, 0.00, 0.000, 0.000, 0.000, 16:19:01.488, 1556921941488
1, 0.00, 32.33, 0.00, 0.00, 0.000, 0.000, 0.000, 16:19:01.511, 1556921941511
2, 0.00, 35.02, 0.00, 0.00, 0.000, 0.000, 0.000, 16:19:01.511, 1556921941511
3, 0.00, 34.24, 0.00, 0.00, 0.000, 0.000, 0.000, 16:19:01.515, 1556921941515
4, 0.00, 41.06, 0.00, 0.00, 0.000, 0.000, 0.000, 16:19:01.515, 1556921941515
5, 0.00, 48.46, 0.00, 0.00, 0.000, 0.000, 0.000, 16:19:01.518, 1556921941518
6, 0.00, 42.32, 0.00, 0.00, 0.000, 0.000, 0.000, 16:19:01.518, 1556921941518
7, 0.00, 49.11, 0.00, 0.00, 0.000, 0.000, 0.000, 16:19:01.538, 1556921941538
8, 0.00, 55.01, 0.00, 0.00, 0.000, 0.000, 0.000, 16:19:01.538, 1556921941538
9, 0.00, 57.84, 0.00, 0.00, 0.000, 0.000, 0.000, 16:19:01.545, 1556921941545
10, 0.00, 58.14, 0.00, 0.00, 0.000, 0.000, 0.000, 16:19:01.545, 1556921941545
11, 0.00, 60.75, 0.00, 0.00, 0.000, 0.000, 0.000, 16:19:01.547, 1556921941547
12, 0.00, 63.17, 0.00, 0.00, 0.000, 0.000, 0.000, 16:19:01.547, 1556921941547
13, 0.00, 58.82, 0.00, 0.00, 0.000, 0.000, 0.000, 16:19:01.559, 1556921941559
14, 0.00, 62.73, 0.00, 0.00, 0.000, 0.000, 0.000, 16:19:01.559, 1556921941559
15, 0.00, 63.37, 0.00, 0.00, 0.000, 0.000, 0.000, 16:19:01.576, 1556921941576
16, 0.00, 62.71, 0.00, 0.00, 0.000, 0.000, 0.000, 16:19:01.576, 1556921941576
17, 0.00, 73.73, 0.00, 0.00, 0.000, 0.000, 0.000, 16:19:01.577, 1556921941577
18, 0.00, 74.11, 0.00, 0.00, 0.000, 0.000, 0.000, 16:19:01.577, 1556921941577
19, 0.00, 69.73, 0.00, 0.00, 0.000, 0.000, 0.000, 16:19:01.589, 1556921941589
20, 0.00, 67.25, 0.00, 0.00, 0.000, 0.000, 0.000, 16:19:01.589, 1556921941589
21, 0.00, 71.55, 0.00, 0.00, 0.000, 0.000, 0.000, 16:19:01.605, 1556921941605
22, 0.00, 67.06, 0.00, 0.00, 0.000, 0.000, 0.000, 16:19:01.605, 1556921941605
23, 0.00, 63.43, 0.00, 0.00, 0.000, 0.000, 0.000, 16:19:01.608, 1556921941608
24, 0.00, 67.48, 0.00, 0.00, 0.000, 0.000, 0.000, 16:19:01.608, 1556921941608
25, 0.00, 62.34, 0.00, 0.00, 0.000, 0.000, 0.000, 16:19:01.619, 1556921941619
26, 0.00, 63.71, 0.00, 0.00, 0.000, 0.000, 0.000, 16:19:01.619, 1556921941619
27, 0.00, 62.85, 0.00, 0.00, 0.000, 0.000, 0.000, 16:19:01.636, 1556921941636
28, 0.00, 64.54, 0.00, 0.00, 0.000, 0.000, 0.000, 16:19:01.636, 1556921941636
29, 0.00, 65.30, 0.00, 0.00, 0.000, 0.000, 0.000, 16:19:01.639, 1556921941639
30, 0.00, 67.85, 0.00, 0.00, 0.000, 0.000, 0.000, 16:19:01.639, 1556921941639
31, 0.00, 71.67, 0.00, 0.00, 0.000, 0.000, 0.000, 16:19:01.650, 1556921941650
32, 0.00, 72.12, 0.00, 0.00, 0.000, 0.000, 0.000, 16:19:01.650, 1556921941650
33, 0.00, 75.11, 0.00, 0.00, 0.000, 0.000, 0.000, 16:19:01.670, 1556921941670
34, 0.00, 75.36, 0.00, 0.00, 0.000, 0.000, 0.000, 16:19:01.670, 1556921941670
35, 0.00, 83.34, 0.00, 0.00, 0.000, 0.000, 0.000, 16:19:01.696, 1556921941696
36, 0.00, 87.59, 0.00, 0.00, 0.000, 0.000, 0.000, 16:19:01.696, 1556921941696
37, 0.00, 94.58, 0.00, 0.00, 0.000, 0.000, 0.000, 16:19:01.697, 1556921941697
38, 0.00, 94.34, 0.00, 0.00, 0.000, 0.000, 0.000, 16:19:01.697, 1556921941697
39, 0.00, 92.91, 0.00, 0.00, 0.000, 0.000, 0.000, 16:19:01.707, 1556921941707
40, 0.00, 99.41, 0.00, 0.00, 0.000, 0.000, 0.000, 16:19:01.707, 1556921941707
41, 0.00, 105.00, 0.00, 0.00, 0.000, 0.000, 0.000, 16:19:01.707, 1556921941707
42, 0.00, 106.40, 0.00, 0.00, 0.000, 0.000, 0.000, 16:19:01.707, 1556921941707
43, 0.00, 108.45, 0.00, 0.00, 0.000, 0.000, 0.000, 16:19:01.709, 1556921941709
44, 0.00, 110.94, 0.00, 0.00, 0.000, 0.000, 0.000, 16:19:01.709, 1556921941709
45, 0.00, 114.33, 0.00, 0.00, 0.000, 0.000, 0.000, 16:19:01.725, 1556921941725
46, 0.00, 113.05, 0.00, 0.00, 0.000, 0.000, 0.000, 16:19:01.725, 1556921941725
47, 0.00, 114.76, 0.00, 0.00, 0.000, 0.000, 0.000, 16:19:01.727, 1556921941727
48, 0.00, 116.86, 0.00, 0.00, 0.000, 0.000, 0.000, 16:19:01.727, 1556921941727
49, 0.00, 108.70, 0.00, 0.00, 0.000, 0.000, 0.000, 16:19:01.739, 1556921941739
50, 0.00, 104.52, 0.00, 0.00, 0.000, 0.000, 0.000, 16:19:01.739, 1556921941739
51, 0.00, 97.46, 0.00, 0.00, 0.000, 0.000, 0.000, 16:19:01.755, 1556921941755
52, 0.00, 98.19, 0.00, 0.00, 0.000, 0.000, 0.000, 16:19:01.755, 1556921941755
53, 0.00, 95.56, 0.00, 0.00, 0.000, 0.000, 0.000, 16:19:01.758, 1556921941758
54, 0.00, 91.84, 0.00, 0.00, 0.000, 0.000, 0.000, 16:19:01.758, 1556921941758
55, 0.00, 89.40, 0.00, 0.00, 0.000, 0.000, 0.000, 16:19:01.770, 1556921941770
56, 0.00, 85.20, 0.00, 0.00, 0.000, 0.000, 0.000, 16:19:01.770, 1556921941770
57, 0.00, 87.89, 0.00, 0.00, 0.000, 0.000, 0.000, 16:19:01.784, 1556921941784
58, 0.00, 87.32, 0.00, 0.00, 0.000, 0.000, 0.000, 16:19:01.784, 1556921941784
59, 0.00, 85.93, 0.00, 0.00, 0.000, 0.000, 0.000, 16:19:01.786, 1556921941786
60, 0.00, 88.09, 0.00, 0.00, 0.000, 0.000, 0.000, 16:19:01.786, 1556921941786
61, 0.00, 89.30, 0.00, 0.00, 0.000, 0.000, 0.000, 16:19:01.801, 1556921941801
62, 0.00, 94.62, 0.00, 0.00, 0.000, 0.000, 0.000, 16:19:01.801, 1556921941801
63, 0.00, 90.91, 0.00, 0.00, 0.000, 0.000, 0.000, 16:19:01.814, 1556921941814
64, 0.00, 94.20, 0.00, 0.00, 0.000, 0.000, 0.000, 16:19:01.814, 1556921941814
65, 0.00, 92.61, 0.00, 0.00, 0.000, 0.000, 0.000, 16:19:01.818, 1556921941818
66, 0.00, 88.70, 0.00, 0.00, 0.000, 0.000, 0.000, 16:19:01.818, 1556921941818
67, 0.00, 93.91, 0.00, 0.00, 0.000, 0.000, 0.000, 16:19:01.828, 1556921941828
68, 0.00, 99.04, 0.00, 0.00, 0.000, 0.000, 0.000, 16:19:01.828, 1556921941828
69, 0.00, 95.16, 0.00, 0.00, 0.000, 0.000, 0.000, 16:19:01.844, 1556921941844
70, 0.00, 97.71, 0.00, 0.00, 0.000, 0.000, 0.000, 16:19:01.844, 1556921941844
71, 0.00, 97.79, 0.00, 0.00, 0.000, 0.000, 0.000, 16:19:01.845, 1556921941845
72, 0.00, 98.36, 0.00, 0.00, 0.000, 0.000, 0.000, 16:19:01.845, 1556921941845
73, 0.00, 96.23, 0.00, 0.00, 0.000, 0.000, 0.000, 16:19:01.858, 1556921941858
74, 0.00, 103.35, 0.00, 0.00, 0.000, 0.000, 0.000, 16:19:01.858, 1556921941858
75, 0.00, 108.39, 0.00, 0.00, 0.000, 0.000, 0.000, 16:19:01.874, 1556921941874
76, 0.00, 115.06, 0.00, 0.00, 0.000, 0.000, 0.000, 16:19:01.874, 1556921941874
77, 0.00, 111.24, 0.00, 0.00, 0.000, 0.000, 0.000, 16:19:01.876, 1556921941876
78, 0.00, 108.20, 0.00, 0.00, 0.000, 0.000, 0.000, 16:19:01.876, 1556921941876
79, 0.00, 108.07, 0.00, 0.00, 0.000, 0.000, 0.000, 16:19:01.889, 1556921941889
80, 0.00, 113.58, 0.00, 0.00, 0.000, 0.000, 0.000, 16:19:01.889, 1556921941889
81, 0.00, 117.55, 0.00, 0.00, 0.000, 0.000, 0.000, 16:19:01.907, 1556921941907
82, 0.00, 109.40, 0.00, 0.00, 0.000, 0.000, 0.000, 16:19:01.907, 1556921941907
83, 0.00, 106.76, 0.00, 0.00, 0.000, 0.000, 0.000, 16:19:01.912, 1556921941912
84, 0.00, 105.58, 0.00, 0.00, 0.000, 0.000, 0.000, 16:19:01.912, 1556921941912
85, 0.00, 103.60, 0.00, 0.00, 0.000, 0.000, 0.000, 16:19:01.924, 1556921941924
86, 0.00, 100.20, 0.00, 0.00, 0.000, 0.000, 0.000, 16:19:01.924, 1556921941924
87, 0.00, 104.44, 0.00, 0.00, 0.000, 0.000, 0.000, 16:19:01.936, 1556921941936
88, 0.00, 105.77, 0.00, 0.00, 0.000, 0.000, 0.000, 16:19:01.936, 1556921941936
89, 0.00, 99.26, 0.00, 0.00, 0.000, 0.000, 0.000, 16:19:01.938, 1556921941938
90, 0.00, 105.73, 0.00, 0.00, 0.000, 0.000, 0.000, 16:19:01.938, 1556921941938
91, 0.00, 109.79, 0.00, 0.00, 0.000, 0.000, 0.000, 16:19:01.950, 1556921941950
92, 0.00, 111.36, 0.00, 0.00, 0.000, 0.000, 0.000, 16:19:01.950, 1556921941950
93, 0.00, 114.47, 0.00, 0.00, 0.000, 0.000, 0.000, 16:19:01.967, 1556921941967
94, 0.00, 124.98, 0.00, 0.00, 0.000, 0.000, 0.000, 16:19:01.967, 1556921941967
95, 0.00, 126.34, 0.00, 0.00, 0.000, 0.000, 0.000, 16:19:01.972, 1556921941972
96, 0.00, 128.05, 0.00, 0.00, 0.000, 0.000, 0.000, 16:19:01.972, 1556921941972
97, 0.00, 135.45, 0.00, 0.00, 0.000, 0.000, 0.000, 16:19:01.981, 1556921941981
98, 0.00, 138.11, 0.00, 0.00, 0.000, 0.000, 0.000, 16:19:01.981, 1556921941981
99, 0.00, 132.56, 0.00, 0.00, 0.000, 0.000, 0.000, 16:19:01.995, 1556921941995
100, 0.00, 139.04, 0.00, 0.00, 0.000, 0.000, 0.000, 16:19:01.995, 1556921941995
101, 0.00, 138.07, 0.00, 0.00, 0.000, 0.000, 0.000, 16:19:01.997, 1556921941997
102, 0.00, 140.35, 0.00, 0.00, 0.000, 0.000, 0.000, 16:19:01.997, 1556921941997
103, 0.00, 139.93, 0.00, 0.00, 0.000, 0.000, 0.000, 16:19:02.009, 1556921942009
104, 0.00, 139.09, 0.00, 0.00, 0.000, 0.000, 0.000, 16:19:02.009, 1556921942009
105, 0.00, 140.41, 0.00, 0.00, 0.000, 0.000, 0.000, 16:19:02.025, 1556921942025
106, 0.00, 136.55, 0.00, 0.00, 0.000, 0.000, 0.000, 16:19:02.025, 1556921942025
107, 0.00, 135.23, 0.00, 0.00, 0.000, 0.000, 0.000, 16:19:02.026, 1556921942026
108, 0.00, 132.92, 0.00, 0.00, 0.000, 0.000, 0.000, 16:19:02.026, 1556921942026
109, 0.00, 130.14, 0.00, 0.00, 0.000, 0.000, 0.000, 16:19:02.039, 1556921942039
110, 0.00, 132.02, 0.00, 0.00, 0.000, 0.000, 0.000, 16:19:02.039, 1556921942039
111, 0.00, 130.41, 0.00, 0.00, 0.000, 0.000, 0.000, 16:19:02.056, 1556921942056
112, 0.00, 133.96, 0.00, 0.00, 0.000, 0.000, 0.000, 16:19:02.056, 1556921942056
113, 0.00, 139.38, 0.00, 0.00, 0.000, 0.000, 0.000, 16:19:02.060, 1556921942060
114, 0.00, 139.29, 0.00, 0.00, 0.000, 0.000, 0.000, 16:19:02.060, 1556921942060
115, 0.00, 138.84, 0.00, 0.00, 0.000, 0.000, 0.000, 16:19:02.075, 1556921942075
116, 0.00, 140.53, 0.00, 0.00, 0.000, 0.000, 0.000, 16:19:02.075, 1556921942075
117, 0.00, 136.80, 0.00, 0.00, 0.000, 0.000, 0.000, 16:19:02.087, 1556921942087
118, 0.00, 143.56, 0.00, 0.00, 0.000, 0.000, 0.000, 16:19:02.087, 1556921942087
119, 0.00, 143.54, 0.00, 0.00, 0.000, 0.000, 0.000, 16:19:02.089, 1556921942089
120, 0.00, 147.93, 0.00, 0.00, 0.000, 0.000, 0.000, 16:19:02.089, 1556921942089
121, 0.00, 151.69, 0.00, 0.00, 0.000, 0.000, 0.000, 16:19:02.101, 1556921942101
122, 0.00, 150.09, 0.00, 0.00, 0.000, 0.000, 0.000, 16:19:02.102, 1556921942102
123, 0.00, 152.50, 0.00, 0.00, 0.000, 0.000, 0.000, 16:19:02.121, 1556921942121
124, 0.00, 153.02, 0.00, 0.00, 0.000, 0.000, 0.000, 16:19:02.121, 1556921942121
125, 0.00, 143.41, 0.00, 0.00, 0.000, 0.000, 0.000, 16:19:02.125, 1556921942125
126, 0.00, 144.60, 0.00, 0.00, 0.000, 0.000, 0.000, 16:19:02.125, 1556921942125
127, 0.00, 147.23, 0.00, 0.00, 0.000, 0.000, 0.000, 16:19:02.129, 1556921942129
128, 0.00, 146.73, 0.00, 0.00, 0.000, 0.000, 0.000, 16:19:02.129, 1556921942129
129, 0.00, 148.02, 0.00, 0.00, 0.000, 0.000, 0.000, 16:19:02.145, 1556921942145
130, 0.00, 150.77, 0.00, 0.00, 0.000, 0.000, 0.000, 16:19:02.145, 1556921942145
131, 0.00, 142.86, 0.00, 0.00, 0.000, 0.000, 0.000, 16:19:02.146, 1556921942146
132, 0.00, 145.30, 0.00, 0.00, 0.000, 0.000, 0.000, 16:19:02.146, 1556921942146
133, 0.00, 139.09, 0.00, 0.00, 0.000, 0.000, 0.000, 16:19:02.159, 1556921942159
134, 0.00, 142.33, 0.00, 0.00, 0.000, 0.000, 0.000, 16:19:02.159, 1556921942159
135, 0.00, 143.37, 0.00, 0.00, 0.000, 0.000, 0.000, 16:19:02.176, 1556921942176
136, 0.00, 142.83, 0.00, 0.00, 0.000, 0.000, 0.000, 16:19:02.176, 1556921942176
137, 0.00, 140.78, 0.00, 0.00, 0.000, 0.000, 0.000, 16:19:02.192, 1556921942192
138, 0.00, 138.45, 0.00, 0.00, 0.000, 0.000, 0.000, 16:19:02.192, 1556921942192
139, 0.00, 135.24, 0.00, 0.00, 0.000, 0.000, 0.000, 16:19:02.198, 1556921942198
140, 0.00, 133.39, 0.00, 0.00, 0.000, 0.000, 0.000, 16:19:02.198, 1556921942198
141, 0.00, 139.00, 0.00, 0.00, 0.000, 0.000, 0.000, 16:19:02.207, 1556921942207
142, 0.00, 140.67, 0.00, 0.00, 0.000, 0.000, 0.000, 16:19:02.207, 1556921942207
143, 0.00, 139.98, 0.00, 0.00, 0.000, 0.000, 0.000, 16:19:02.208, 1556921942208
144, 0.00, 144.66, 0.00, 0.00, 0.000, 0.000, 0.000, 16:19:02.208, 1556921942208
145, 0.00, 143.95, 0.00, 0.00, 0.000, 0.000, 0.000, 16:19:02.220, 1556921942220
146, 0.00, 143.54, 0.00, 0.00, 0.000, 0.000, 0.000, 16:19:02.220, 1556921942220
147, 0.00, 145.30, 0.00, 0.00, 0.000, 0.000, 0.000, 16:19:02.235, 1556921942235
148, 0.00, 146.65, 0.00, 0.00, 0.000, 0.000, 0.000, 16:19:02.235, 1556921942235
149, 0.00, 152.97, 0.00, 0.00, 0.000, 0.000, 0.000, 16:19:02.236, 1556921942236
150, 0.00, 154.14, 0.00, 0.00, 0.000, 0.000, 0.000, 16:19:02.236, 1556921942236
151, 0.00, 152.30, 0.00, 0.00, 0.000, 0.000, 0.000, 16:19:02.248, 1556921942248
152, 0.00, 152.17, 0.00, 0.00, 0.000, 0.000, 0.000, 16:19:02.248, 1556921942248
153, 0.00, 153.25, 0.00, 0.00, 0.000, 0.000, 0.000, 16:19:02.264, 1556921942264
154, 0.00, 149.53, 0.00, 0.00, 0.000, 0.000, 0.000, 16:19:02.264, 1556921942264
155, 0.00, 148.12, 0.00, 0.00, 0.000, 0.000, 0.000, 16:19:02.265, 1556921942265
156, 0.00, 152.80, 0.00, 0.00, 0.000, 0.000, 0.000, 16:19:02.265, 1556921942265
157, 0.00, 154.71, 0.00, 0.00, 0.000, 0.000, 0.000, 16:19:02.278, 1556921942278
158, 0.00, 148.82, 0.00, 0.00, 0.000, 0.000, 0.000, 16:19:02.278, 1556921942278
159, 0.00, 145.74, 0.00, 0.00, 0.000, 0.000, 0.000, 16:19:02.312, 1556921942312
160, 0.00, 149.03, 0.00, 0.00, 0.000, 0.000, 0.000, 16:19:02.312, 1556921942312
161, 0.00, 152.75, 0.00, 0.00, 0.000, 0.000, 0.000, 16:19:02.316, 1556921942316
162, 0.00, 156.12, 0.00, 0.00, 0.000, 0.000, 0.000, 16:19:02.316, 1556921942316
163, 0.00, 151.85, 0.00, 0.00, 0.000, 0.000, 0.000, 16:19:02.319, 1556921942319
164, 0.00, 147.95, 0.00, 0.00, 0.000, 0.000, 0.000, 16:19:02.319, 1556921942319
165, 0.00, 149.31, 0.00, 0.00, 0.000, 0.000, 0.000, 16:19:02.325, 1556921942325
166, 0.00, 145.54, 0.00, 0.00, 0.000, 0.000, 0.000, 16:19:02.325, 1556921942325
167, 0.00, 153.94, 0.00, 0.00, 0.000, 0.000, 0.000, 16:19:02.329, 1556921942329
168, 0.00, 154.71, 0.00, 0.00, 0.000, 0.000, 0.000, 16:19:02.329, 1556921942329
169, 0.00, 157.74, 0.00, 0.00, 0.000, 0.000, 0.000, 16:19:02.340, 1556921942340
170, 0.00, 163.57, 0.00, 0.00, 0.000, 0.000, 0.000, 16:19:02.340, 1556921942340
171, 0.00, 162.10, 0.00, 0.00, 0.000, 0.000, 0.000, 16:19:02.355, 1556921942355
172, 0.00, 161.51, 0.00, 0.00, 0.000, 0.000, 0.000, 16:19:02.355, 1556921942355
173, 0.00, 160.27, 0.00, 0.00, 0.000, 0.000, 0.000, 16:19:02.358, 1556921942358
174, 0.00, 158.47, 0.00, 0.00, 0.000, 0.000, 0.000, 16:19:02.358, 1556921942358
175, 0.00, 167.12, 0.00, 0.00, 0.000, 0.000, 0.000, 16:19:02.369, 1556921942369
176, 0.00, 167.21, 0.00, 0.00, 0.000, 0.000, 0.000, 16:19:02.369, 1556921942369
177, 0.00, 172.26, 0.00, 0.00, 0.000, 0.000, 0.000, 16:19:02.388, 1556921942388
178, 0.00, 169.31, 0.00, 0.00, 0.000, 0.000, 0.000, 16:19:02.388, 1556921942388
179, 0.00, 164.43, 0.00, 0.00, 0.000, 0.000, 0.000, 16:19:02.389, 1556921942389
180, 0.00, 165.91, 0.00, 0.00, 0.000, 0.000, 0.000, 16:19:02.389, 1556921942389
181, 0.00, 166.68, 0.00, 0.00, 0.000, 0.000, 0.000, 16:19:02.400, 1556921942400
182, 0.00, 163.27, 0.00, 0.00, 0.000, 0.000, 0.000, 16:19:02.400, 1556921942400
183, 0.00, 162.28, 0.00, 0.00, 0.000, 0.000, 0.000, 16:19:02.414, 1556921942414
184, 0.00, 165.87, 0.00, 0.00, 0.000, 0.000, 0.000, 16:19:02.414, 1556921942414
185, 0.00, 167.64, 0.00, 0.00, 0.000, 0.000, 0.000, 16:19:02.415, 1556921942415
186, 0.00, 164.05, 0.00, 0.00, 0.000, 0.000, 0.000, 16:19:02.415, 1556921942415
187, 0.00, 157.52, 0.00, 0.00, 0.000, 0.000, 0.000, 16:19:02.429, 1556921942429
188, 0.00, 151.75, 0.00, 0.00, 0.000, 0.000, 0.000, 16:19:02.429, 1556921942429
189, 0.00, 146.64, 0.00, 0.00, 0.000, 0.000, 0.000, 16:19:02.444, 1556921942444
190, 0.00, 150.93, 0.00, 0.00, 0.000, 0.000, 0.000, 16:19:02.444, 1556921942444
191, 0.00, 155.33, 0.00, 0.00, 0.000, 0.000, 0.000, 16:19:02.445, 1556921942445
192, 0.00, 155.58, 0.00, 0.00, 0.000, 0.000, 0.000, 16:19:02.445, 1556921942445
193, 0.00, 154.86, 0.00, 0.00, 0.000, 0.000, 0.000, 16:19:02.459, 1556921942459
194, 0.00, 157.93, 0.00, 0.00, 0.000, 0.000, 0.000, 16:19:02.459, 1556921942459
195, 0.00, 154.90, 0.00, 0.00, 0.000, 0.000, 0.000, 16:19:02.474, 1556921942474
196, 0.00, 148.03, 0.00, 0.00, 0.000, 0.000, 0.000, 16:19:02.474, 1556921942474
197, 0.00, 149.38, 0.00, 0.00, 0.000, 0.000, 0.000, 16:19:02.475, 1556921942475
198, 0.00, 148.11, 0.00, 0.00, 0.000, 0.000, 0.000, 16:19:02.475, 1556921942475
199, 0.00, 154.61, 0.00, 0.00, 0.000, 0.000, 0.000, 16:19:02.490, 1556921942490
200, 0.00, 157.69, 0.00, 0.00, 0.000, 0.000, 0.000, 16:19:02.491, 1556921942491
0, 0.00, 161.73, 0.00, 0.00, 0.000, 0.000, 0.000, 16:19:02.494, 1556921942494
1, 0.00, 162.32, 0.00, 0.00, 0.000, 0.000, 0.000, 16:19:02.509, 1556921942509
2, 0.00, 158.84, 0.00, 0.00, 0.000, 0.000, 0.000, 16:19:02.509, 1556921942509
3, 0.00, 159.19, 0.00, 0.00, 0.000, 0.000, 0.000, 16:19:02.522, 1556921942522
4, 0.00, 161.24, 0.00, 0.00, 0.000, 0.000, 0.000, 16:19:02.522, 1556921942522
5, 0.00, 156.01, 0.00, 0.00, 0.000, 0.000, 0.000, 16:19:02.526, 1556921942526
6, 0.00, 159.45, 0.00, 0.00, 0.000, 0.000, 0.000, 16:19:02.526, 1556921942526
7, 0.00, 160.39, 0.00, 0.00, 0.000, 0.000, 0.000, 16:19:02.541, 1556921942541
8, 0.00, 159.56, 0.00, 0.00, 0.000, 0.000, 0.000, 16:19:02.541, 1556921942541
9, 0.00, 159.08, 0.00, 0.00, 0.000, 0.000, 0.000, 16:19:02.550, 1556921942550
10, 0.00, 160.17, 0.00, 0.00, 0.000, 0.000, 0.000, 16:19:02.550, 1556921942550
11, 0.00, 155.10, 0.00, 0.00, 0.000, 0.000, 0.000, 16:19:02.551, 1556921942551
12, 0.00, 158.54, 0.00, 0.00, 0.000, 0.000, 0.000, 16:19:02.551, 1556921942551
13, 0.00, 158.74, 0.00, 0.00, 0.000, 0.000, 0.000, 16:19:02.565, 1556921942565
14, 0.00, 157.91, 0.00, 0.00, 0.000, 0.000, 0.000, 16:19:02.565, 1556921942565
15, 0.00, 156.83, 0.00, 0.00, 0.000, 0.000, 0.000, 16:19:02.596, 1556921942596
16, 0.00, 151.91, 0.00, 0.00, 0.000, 0.000, 0.000, 16:19:02.596, 1556921942596
17, 0.00, 149.80, 0.00, 0.00, 0.000, 0.000, 0.000, 16:19:02.597, 1556921942597
18, 0.00, 143.70, 0.00, 0.00, 0.000, 0.000, 0.000, 16:19:02.597, 1556921942597
19, 0.00, 141.02, 0.00, 0.00, 0.000, 0.000, 0.000, 16:19:02.598, 1556921942598
20, 0.00, 140.35, 0.00, 0.00, 0.000, 0.000, 0.000, 16:19:02.598, 1556921942598
21, 0.00, 142.39, 0.00, 0.00, 0.000, 0.000, 0.000, 16:19:02.598, 1556921942598
22, 0.00, 148.31, 0.00, 0.00, 0.000, 0.000, 0.000, 16:19:02.598, 1556921942598
23, 0.00, 148.95, 0.00, 0.00, 0.000, 0.000, 0.000, 16:19:02.609, 1556921942609
24, 0.00, 142.74, 0.00, 0.00, 0.000, 0.000, 0.000, 16:19:02.609, 1556921942609
25, 0.00, 141.61, 0.00, 0.00, 0.000, 0.000, 0.000, 16:19:02.625, 1556921942625
26, 0.00, 142.94, 0.00, 0.00, 0.000, 0.000, 0.000, 16:19:02.625, 1556921942625
27, 0.00, 150.02, 0.00, 0.00, 0.000, 0.000, 0.000, 16:19:02.640, 1556921942640
28, 0.00, 148.51, 0.00, 0.00, 0.000, 0.000, 0.000, 16:19:02.640, 1556921942640
29, 0.00, 143.70, 0.00, 0.00, 0.000, 0.000, 0.000, 16:19:02.641, 1556921942641
30, 0.00, 145.44, 0.00, 0.00, 0.000, 0.000, 0.000, 16:19:02.641, 1556921942641
31, 0.00, 140.29, 0.00, 0.00, 0.000, 0.000, 0.000, 16:19:02.654, 1556921942654
32, 0.00, 136.69, 0.00, 0.00, 0.000, 0.000, 0.000, 16:19:02.654, 1556921942654
33, 0.00, 137.61, 0.00, 0.00, 0.000, 0.000, 0.000, 16:19:02.670, 1556921942670
34, 0.00, 135.51, 0.00, 0.00, 0.000, 0.000, 0.000, 16:19:02.670, 1556921942670
35, 0.00, 132.90, 0.00, 0.00, 0.000, 0.000, 0.000, 16:19:02.672, 1556921942672
36, 0.00, 131.19, 0.00, 0.00, 0.000, 0.000, 0.000, 16:19:02.672, 1556921942672
37, 0.00, 125.46, 0.00, 0.00, 0.000, 0.000, 0.000, 16:19:02.684, 1556921942684
38, 0.00, 118.67, 0.00, 0.00, 0.000, 0.000, 0.000, 16:19:02.684, 1556921942684
39, 0.00, 116.66, 0.00, 0.00, 0.000, 0.000, 0.000, 16:19:02.701, 1556921942701
40, 0.00, 115.07, 0.00, 0.00, 0.000, 0.000, 0.000, 16:19:02.701, 1556921942701
41, 0.00, 115.68, 0.00, 0.00, 0.000, 0.000, 0.000, 16:19:02.705, 1556921942705
42, 0.00, 111.77, 0.00, 0.00, 0.000, 0.000, 0.000, 16:19:02.705, 1556921942705
43, 0.00, 109.47, 0.00, 0.00, 0.000, 0.000, 0.000, 16:19:02.715, 1556921942715
44, 0.00, 109.33, 0.00, 0.00, 0.000, 0.000, 0.000, 16:19:02.715, 1556921942715
45, 0.00, 101.70, 0.00, 0.00, 0.000, 0.000, 0.000, 16:19:02.731, 1556921942731
46, 0.00, 102.00, 0.00, 0.00, 0.000, 0.000, 0.000, 16:19:02.731, 1556921942731
47, 0.00, 101.56, 0.00, 0.00, 0.000, 0.000, 0.000, 16:19:02.736, 1556921942736
48, 0.00, 94.70, 0.00, 0.00, 0.000, 0.000, 0.000, 16:19:02.736, 1556921942736
49, 0.00, 90.81, 0.00, 0.00, 0.000, 0.000, 0.000, 16:19:02.748, 1556921942748
50, 0.00, 90.22, 0.00, 0.00, 0.000, 0.000, 0.000, 16:19:02.748, 1556921942748
51, 0.00, 96.13, 0.00, 0.00, 0.000, 0.000, 0.000, 16:19:02.776, 1556921942776
52, 0.00, 88.99, 0.00, 0.00, 0.000, 0.000, 0.000, 16:19:02.776, 1556921942776
53, 0.00, 90.15, 0.00, 0.00, 0.000, 0.000, 0.000, 16:19:02.778, 1556921942778
54, 0.00, 85.25, 0.00, 0.00, 0.000, 0.000, 0.000, 16:19:02.778, 1556921942778
55, 0.00, 81.19, 0.00, 0.00, 0.000, 0.000, 0.000, 16:19:02.778, 1556921942778
56, 0.00, 85.14, 0.00, 0.00, 0.000, 0.000, 0.000, 16:19:02.778, 1556921942778
57, 0.00, 85.45, 0.00, 0.00, 0.000, 0.000, 0.000, 16:19:02.780, 1556921942780
58, 0.00, 85.62, 0.00, 0.00, 0.000, 0.000, 0.000, 16:19:02.780, 1556921942780
59, 0.00, 81.34, 0.00, 0.00, 0.000, 0.000, 0.000, 16:19:02.789, 1556921942789
60, 0.00, 83.04, 0.00, 0.00, 0.000, 0.000, 0.000, 16:19:02.789, 1556921942789
61, 0.00, 81.91, 0.00, 0.00, 0.000, 0.000, 0.000, 16:19:02.804, 1556921942804
62, 0.00, 76.35, 0.00, 0.00, 0.000, 0.000, 0.000, 16:19:02.804, 1556921942804
63, 0.00, 74.57, 0.00, 0.00, 0.000, 0.000, 0.000, 16:19:02.819, 1556921942819
64, 0.00, 70.54, 0.00, 0.00, 0.000, 0.000, 0.000, 16:19:02.819, 1556921942819
65, 0.00, 68.82, 0.00, 0.00, 0.000, 0.000, 0.000, 16:19:02.820, 1556921942820
66, 0.00, 70.25, 0.00, 0.00, 0.000, 0.000, 0.000, 16:19:02.820, 1556921942820
67, 0.00, 66.61, 0.00, 0.00, 0.000, 0.000, 0.000, 16:19:02.834, 1556921942834
68, 0.00, 65.14, 0.00, 0.00, 0.000, 0.000, 0.000, 16:19:02.834, 1556921942834
69, 0.00, 62.16, 0.00, 0.00, 0.000, 0.000, 0.000, 16:19:02.852, 1556921942852
70, 0.00, 61.18, 0.00, 0.00, 0.000, 0.000, 0.000, 16:19:02.852, 1556921942852
71, 0.00, 65.31, 0.00, 0.00, 0.000, 0.000, 0.000, 16:19:02.860, 1556921942860
72, 0.00, 57.85, 0.00, 0.00, 0.000, 0.000, 0.000, 16:19:02.860, 1556921942860
73, 0.00, 63.53, 0.00, 0.00, 0.000, 0.000, 0.000, 16:19:02.874, 1556921942874
74, 0.00, 65.62, 0.00, 0.00, 0.000, 0.000, 0.000, 16:19:02.874, 1556921942874
75, 0.00, 67.52, 0.00, 0.00, 0.000, 0.000, 0.000, 16:19:02.891, 1556921942891
76, 0.00, 77.42, 0.00, 0.00, 0.000, 0.000, 0.000, 16:19:02.891, 1556921942891
77, 0.00, 81.64, 0.00, 0.00, 0.000, 0.000, 0.000, 16:19:02.893, 1556921942893
78, 0.00, 93.46, 0.00, 0.00, 0.000, 0.000, 0.000, 16:19:02.893, 1556921942893
79, 0.00, 76.12, 0.00, 0.00, 0.000, 0.000, 0.000, 16:19:02.898, 1556921942898
80, 0.00, 113.57, 0.00, 0.00, 0.000, 0.000, 0.000, 16:19:02.898, 1556921942898
81, 0.00, 132.07, 0.00, 0.00, 0.000, 0.000, 0.000, 16:19:02.909, 1556921942909
82, 0.00, 142.57, 0.00, 0.00, 0.000, 0.000, 0.000, 16:19:02.909, 1556921942909
83, 0.00, 161.88, 0.00, 0.00, 0.000, 0.000, 0.000, 16:19:02.910, 1556921942910
84, 0.00, 185.91, 0.00, 0.00, 0.000, 0.000, 0.000, 16:19:02.910, 1556921942910
85, 0.00, 166.00, 0.00, 0.00, 0.000, 0.000, 0.000, 16:19:02.924, 1556921942924
86, 0.00, 169.67, 0.00, 0.00, 0.000, 0.000, 0.000, 16:19:02.924, 1556921942924
87, 0.00, 165.32, 0.00, 0.00, 0.000, 0.000, 0.000, 16:19:02.939, 1556921942939
88, 0.00, 161.52, 0.00, 0.00, 0.000, 0.000, 0.000, 16:19:02.939, 1556921942939
89, 0.00, 156.19, 0.00, 0.00, 0.000, 0.000, 0.000, 16:19:02.940, 1556921942940
90, 0.00, 151.02, 0.00, 0.00, 0.000, 0.000, 0.000, 16:19:02.940, 1556921942940
91, 0.00, 144.49, 0.00, 0.00, 0.000, 0.000, 0.000, 16:19:02.956, 1556921942956
92, 0.00, 141.32, 0.00, 0.00, 0.000, 0.000, 0.000, 16:19:02.956, 1556921942956
93, 0.00, 139.14, 0.00, 0.00, 0.000, 0.000, 0.000, 16:19:02.969, 1556921942969
94, 0.00, 131.87, 0.00, 0.00, 0.000, 0.000, 0.000, 16:19:02.969, 1556921942969
95, 0.00, 123.42, 0.00, 0.00, 0.000, 0.000, 0.000, 16:19:02.970, 1556921942970
96, 0.00, 120.27, 0.00, 0.00, 0.000, 0.000, 0.000, 16:19:02.970, 1556921942970
97, 0.00, 116.78, 0.00, 0.00, 0.000, 0.000, 0.000, 16:19:02.985, 1556921942985
98, 0.00, 112.44, 0.00, 0.00, 0.000, 0.000, 0.000, 16:19:02.985, 1556921942985
99, 0.00, 106.81, 0.00, 0.00, 0.000, 0.000, 0.000, 16:19:03.000, 1556921943000
100, 0.00, 101.90, 0.00, 0.00, 0.000, 0.000, 0.000, 16:19:03.000, 1556921943000
101, 0.00, 99.16, 0.00, 0.00, 0.000, 0.000, 0.000, 16:19:03.001, 1556921943001
102, 0.00, 92.80, 0.00, 0.00, 0.000, 0.000, 0.000, 16:19:03.001, 1556921943001
103, 0.00, 85.24, 0.00, 0.00, 0.000, 0.000, 0.000, 16:19:03.014, 1556921943014
104, 0.00, 76.48, 0.00, 0.00, 0.000, 0.000, 0.000, 16:19:03.014, 1556921943014
105, 0.00, 76.10, 0.00, 0.00, 0.000, 0.000, 0.000, 16:19:03.030, 1556921943030
106, 0.00, 73.08, 0.00, 0.00, 0.000, 0.000, 0.000, 16:19:03.030, 1556921943030
107, 0.00, 66.81, 0.00, 0.00, 0.000, 0.000, 0.000, 16:19:03.031, 1556921943031
108, 0.00, 61.14, 0.00, 0.00, 0.000, 0.000, 0.000, 16:19:03.031, 1556921943031
109, 0.00, 53.88, 0.00, 0.00, 0.000, 0.000, 0.000, 16:19:03.044, 1556921943044
110, 0.00, 47.41, 0.00, 0.00, 0.000, 0.000, 0.000, 16:19:03.044, 1556921943044
111, 0.00, 39.49, 0.00, 0.00, 0.000, 0.000, 0.000, 16:19:03.060, 1556921943060
112, 0.00, 35.68, 0.00, 0.00, 0.000, 0.000, 0.000, 16:19:03.060, 1556921943060
113, 0.00, 31.63, 0.00, 0.00, 0.000, 0.000, 0.000, 16:19:03.061, 1556921943061
114, 0.00, 24.28, 0.00, 0.00, 0.000, 0.000, 0.000, 16:19:03.061, 1556921943061
115, 0.00, 21.85, 0.00, 0.00, 0.000, 0.000, 0.000, 16:19:03.074, 1556921943074
116, 0.00, 12.14, 0.00, 0.00, 0.000, 0.000, 0.000, 16:19:03.074, 1556921943074
117, 0.00, 11.63, 0.00, 0.00, 0.000, 0.000, 0.000, 16:19:03.089, 1556921943089
118, 0.00, 6.33, 0.00, 0.00, 0.000, 0.000, 0.000, 16:19:03.089, 1556921943089
119, 0.00, 12.78, 0.00, 0.00, 0.000, 0.000, 0.000, 16:19:03.090, 1556921943090
120, 0.00, 17.35, 0.00, 0.00, 0.000, 0.000, 0.000, 16:19:03.090, 1556921943090
121, 0.00, 10.01, 0.00, 0.00, 0.000, 0.000, 0.000, 16:19:03.104, 1556921943104
122, 0.00, 9.60, 0.00, 0.00, 0.000, 0.000, 0.000, 16:19:03.104, 1556921943104
123, 0.00, 10.25, 0.00, 0.00, 0.000, 0.000, 0.000, 16:19:03.120, 1556921943120
124, 0.00, 14.70, 0.00, 0.00, 0.000, 0.000, 0.000, 16:19:03.120, 1556921943120
125, 0.00, 21.27, 0.00, 0.00, 0.000, 0.000, 0.000, 16:19:03.126, 1556921943126
126, 0.00, 20.70, 0.00, 0.00, 0.000, 0.000, 0.000, 16:19:03.126, 1556921943126
127, 0.00, 16.87, 0.00, 0.00, 0.000, 0.000, 0.000, 16:19:03.152, 1556921943152
128, 0.00, 16.00, 0.00, 0.00, 0.000, 0.000, 0.000, 16:19:03.152, 1556921943152
129, 0.00, 24.96, 0.00, 0.00, 0.000, 0.000, 0.000, 16:19:03.158, 1556921943158
130, 0.00, 26.47, 0.00, 0.00, 0.000, 0.000, 0.000, 16:19:03.158, 1556921943158
131, 0.00, 23.14, 0.00, 0.00, 0.000, 0.000, 0.000, 16:19:03.159, 1556921943159
132, 0.00, 20.65, 0.00, 0.00, 0.000, 0.000, 0.000, 16:19:03.159, 1556921943159
133, 0.00, 24.84, 0.00, 0.00, 0.000, 0.000, 0.000, 16:19:03.165, 1556921943165
134, 0.00, 22.77, 0.00, 0.00, 0.000, 0.000, 0.000, 16:19:03.165, 1556921943165
135, 0.00, 16.80, 0.00, 0.00, 0.000, 0.000, 0.000, 16:19:03.180, 1556921943180
136, 0.00, 18.25, 0.00, 0.00, 0.000, 0.000, 0.000, 16:19:03.180, 1556921943180
137, 0.00, 9.72, 0.00, 0.00, 0.000, 0.000, 0.000, 16:19:03.182, 1556921943182
138, 0.00, 12.42, 0.00, 0.00, 0.000, 0.000, 0.000, 16:19:03.182, 1556921943182
139, 0.00, 10.89, 0.00, 0.00, 0.000, 0.000, 0.000, 16:19:03.195, 1556921943195
140, 0.00, 11.04, 0.00, 0.00, 0.000, 0.000, 0.000, 16:19:03.195, 1556921943195
141, 0.00, 10.95, 0.00, 0.00, 0.000, 0.000, 0.000, 16:19:03.212, 1556921943212
142, 0.00, 8.94, 0.00, 0.00, 0.000, 0.000, 0.000, 16:19:03.212, 1556921943212
143, 0.00, 6.66, 0.00, 0.00, 0.000, 0.000, 0.000, 16:19:03.213, 1556921943213
144, 0.00, 3.76, 0.00, 0.00, 0.000, 0.000, 0.000, 16:19:03.213, 1556921943213
145, 0.00, 6.23, 0.00, 0.00, 0.000, 0.000, 0.000, 16:19:03.223, 1556921943223
146, 0.00, 9.68, 0.00, 0.00, 0.000, 0.000, 0.000, 16:19:03.223, 1556921943223
147, 0.00, 9.34, 0.00, 0.00, 0.000, 0.000, 0.000, 16:19:03.239, 1556921943239
148, 0.00, 9.22, 0.00, 0.00, 0.000, 0.000, 0.000, 16:19:03.239, 1556921943239
149, 0.00, 11.86, 0.00, 0.00, 0.000, 0.000, 0.000, 16:19:03.240, 1556921943240
150, 0.00, 11.30, 0.00, 0.00, 0.000, 0.000, 0.000, 16:19:03.240, 1556921943240
151, 0.00, 15.89, 0.00, 0.00, 0.000, 0.000, 0.000, 16:19:03.254, 1556921943254
152, 0.00, 16.93, 0.00, 0.00, 0.000, 0.000, 0.000, 16:19:03.254, 1556921943254
153, 0.00, 21.58, 0.00, 0.00, 0.000, 0.000, 0.000, 16:19:03.269, 1556921943269
154, 0.00, 22.99, 0.00, 0.00, 0.000, 0.000, 0.000, 16:19:03.269, 1556921943269
155, 0.00, 12.86, 0.00, 0.00, 0.000, 0.000, 0.000, 16:19:03.270, 1556921943270
156, 0.00, 25.66, 0.00, 0.00, 0.000, 0.000, 0.000, 16:19:03.270, 1556921943270
157, 0.00, 27.54, 0.00, 0.00, 0.000, 0.000, 0.000, 16:19:03.284, 1556921943284
158, 0.00, 20.73, 0.00, 0.00, 0.000, 0.000, 0.000, 16:19:03.284, 1556921943284
159, 0.00, 14.00, 0.00, 0.00, 0.000, 0.000, 0.000, 16:19:03.300, 1556921943300
160, 0.00, 13.41, 0.00, 0.00, 0.000, 0.000, 0.000, 16:19:03.300, 1556921943300
161, 0.00, 21.06, 0.00, 0.00, 0.000, 0.000, 0.000, 16:19:03.300, 1556921943300
162, 0.00, 23.88, 0.00, 0.00, 0.000, 0.000, 0.000, 16:19:03.300, 1556921943300
163, 0.00, 17.12, 0.00, 0.00, 0.000, 0.000, 0.000, 16:19:03.314, 1556921943314
164, 0.00, 18.14, 0.00, 0.00, 0.000, 0.000, 0.000, 16:19:03.314, 1556921943314
165, 0.00, 18.57, 0.00, 0.00, 0.000, 0.000, 0.000, 16:19:03.330, 1556921943330
166, 0.00, 16.60, 0.00, 0.00, 0.000, 0.000, 0.000, 16:19:03.330, 1556921943330
167, 0.00, 21.03, 0.00, 0.00, 0.000, 0.000, 0.000, 16:19:03.331, 1556921943331
168, 0.00, 19.01, 0.00, 0.00, 0.000, 0.000, 0.000, 16:19:03.331, 1556921943331
169, 0.00, 19.08, 0.00, 0.00, 0.000, 0.000, 0.000, 16:19:03.344, 1556921943344
170, 0.00, 18.51, 0.00, 0.00, 0.000, 0.000, 0.000, 16:19:03.344, 1556921943344
171, 0.00, 13.54, 0.00, 0.00, 0.000, 0.000, 0.000, 16:19:03.359, 1556921943359
172, 0.00, 19.57, 0.00, 0.00, 0.000, 0.000, 0.000, 16:19:03.359, 1556921943359
173, 0.00, 13.65, 0.00, 0.00, 0.000, 0.000, 0.000, 16:19:03.360, 1556921943360
174, 0.00, 19.57, 0.00, 0.00, 0.000, 0.000, 0.000, 16:19:03.360, 1556921943360
175, 0.00, 14.42, 0.00, 0.00, 0.000, 0.000, 0.000, 16:19:03.374, 1556921943374
176, 0.00, 14.60, 0.00, 0.00, 0.000, 0.000, 0.000, 16:19:03.374, 1556921943374
177, 0.00, 10.68, 0.00, 0.00, 0.000, 0.000, 0.000, 16:19:03.390, 1556921943390
178, 0.00, 21.56, 0.00, 0.00, 0.000, 0.000, 0.000, 16:19:03.390, 1556921943390
179, 0.00, 18.88, 0.00, 0.00, 0.000, 0.000, 0.000, 16:19:03.393, 1556921943393
180, 0.00, 19.62, 0.00, 0.00, 0.000, 0.000, 0.000, 16:19:03.393, 1556921943393
181, 0.00, 17.73, 0.00, 0.00, 0.000, 0.000, 0.000, 16:19:03.421, 1556921943421
182, 0.00, 16.72, 0.00, 0.00, 0.000, 0.000, 0.000, 16:19:03.421, 1556921943421
183, 0.00, 16.18, 0.00, 0.00, 0.000, 0.000, 0.000, 16:19:03.422, 1556921943422
184, 0.00, 11.89, 0.00, 0.00, 0.000, 0.000, 0.000, 16:19:03.422, 1556921943422
185, 0.00, 14.31, 0.00, 0.00, 0.000, 0.000, 0.000, 16:19:03.423, 1556921943423
186, 0.00, 14.72, 0.00, 0.00, 0.000, 0.000, 0.000, 16:19:03.423, 1556921943423
187, 0.00, 16.20, 0.00, 0.00, 0.000, 0.000, 0.000, 16:19:03.434, 1556921943434
188, 0.00, 15.59, 0.00, 0.00, 0.000, 0.000, 0.000, 16:19:03.435, 1556921943435
189, 0.00, 19.23, 0.00, 0.00, 0.000, 0.000, 0.000, 16:19:03.449, 1556921943449
190, 0.00, 16.12, 0.00, 0.00, 0.000, 0.000, 0.000, 16:19:03.449, 1556921943449
191, 0.00, 14.76, 0.00, 0.00, 0.000, 0.000, 0.000, 16:19:03.451, 1556921943451
192, 0.00, 12.06, 0.00, 0.00, 0.000, 0.000, 0.000, 16:19:03.451, 1556921943451
193, 0.00, 18.23, 0.00, 0.00, 0.000, 0.000, 0.000, 16:19:03.464, 1556921943464
194, 0.00, 17.77, 0.00, 0.00, 0.000, 0.000, 0.000, 16:19:03.464, 1556921943464
195, 0.00, 17.06, 0.00, 0.00, 0.000, 0.000, 0.000, 16:19:03.480, 1556921943480
196, 0.00, 16.99, 0.00, 0.00, 0.000, 0.000, 0.000, 16:19:03.480, 1556921943480
197, 0.00, 17.05, 0.00, 0.00, 0.000, 0.000, 0.000, 16:19:03.481, 1556921943481
198, 0.00, 14.92, 0.00, 0.00, 0.000, 0.000, 0.000, 16:19:03.481, 1556921943481
199, 0.00, 24.34, 0.00, 0.00, 0.000, 0.000, 0.000, 16:19:03.494, 1556921943494
200, 0.00, 27.46, 0.00, 0.00, 0.000, 0.000, 0.000, 16:19:03.494, 1556921943494
0, 0.00, 17.92, 0.00, 0.00, 0.000, 0.000, 0.000, 16:19:03.496, 1556921943496
1, 0.00, 15.09, 0.00, 0.00, 0.000, 0.000, 0.000, 16:19:03.509, 1556921943509
2, 0.00, 14.80, 0.00, 0.00, 0.000, 0.000, 0.000, 16:19:03.509, 1556921943509
3, 0.00, 13.99, 0.00, 0.00, 0.000, 0.000, 0.000, 16:19:03.524, 1556921943524
4, 0.00, 9.71, 0.00, 0.00, 0.000, 0.000, 0.000, 16:19:03.524, 1556921943524
5, 0.00, 7.88, 0.00, 0.00, 0.000, 0.000, 0.000, 16:19:03.526, 1556921943526
6, 0.00, 7.56, 0.00, 0.00, 0.000, 0.000, 0.000, 16:19:03.526, 1556921943526
7, 0.00, 15.48, 0.00, 0.00, 0.000, 0.000, 0.000, 16:19:03.539, 1556921943539
8, 0.00, 7.40, 0.00, 0.00, 0.000, 0.000, 0.000, 16:19:03.539, 1556921943539
9, 0.00, 4.63, 0.00, 0.00, 0.000, 0.000, 0.000, 16:19:03.554, 1556921943554
10, 0.00, 8.68, 0.00, 0.00, 0.000, 0.000, 0.000, 16:19:03.554, 1556921943554
11, 0.00, 7.96, 0.00, 0.00, 0.000, 0.000, 0.000, 16:19:03.556, 1556921943556
12, 0.00, 11.92, 0.00, 0.00, 0.000, 0.000, 0.000, 16:19:03.556, 1556921943556
13, 0.00, 11.71, 0.00, 0.00, 0.000, 0.000, 0.000, 16:19:03.570, 1556921943570
14, 0.00, 11.46, 0.00, 0.00, 0.000, 0.000, 0.000, 16:19:03.570, 1556921943570
15, 0.00, 7.64, 0.00, 0.00, 0.000, 0.000, 0.000, 16:19:03.585, 1556921943585
16, 0.00, 6.82, 0.00, 0.00, 0.000, 0.000, 0.000, 16:19:03.585, 1556921943585
17, 0.00, 7.80, 0.00, 0.00, 0.000, 0.000, 0.000, 16:19:03.587, 1556921943587
18, 0.00, 13.28, 0.00, 0.00, 0.000, 0.000, 0.000, 16:19:03.587, 1556921943587
19, 0.00, 7.66, 0.00, 0.00, 0.000, 0.000, 0.000, 16:19:03.599, 1556921943599
20, 0.00, 6.62, 0.00, 0.00, 0.000, 0.000, 0.000, 16:19:03.599, 1556921943599
21, 0.00, 3.03, 0.00, 0.00, 0.000, 0.000, 0.000, 16:19:03.614, 1556921943614
22, 0.00, 6.03, 0.00, 0.00, 0.000, 0.000, 0.000, 16:19:03.614, 1556921943614
23, 0.00, 3.61, 0.00, 0.00, 0.000, 0.000, 0.000, 16:19:03.615, 1556921943615
24, 0.00, 2.81, 0.00, 0.00, 0.000, 0.000, 0.000, 16:19:03.615, 1556921943615
25, 0.00, 3.60, 0.00, 0.00, 0.000, 0.000, 0.000, 16:19:03.629, 1556921943629
26, 0.00, 8.90, 0.00, 0.00, 0.000, 0.000, 0.000, 16:19:03.629, 1556921943629
27, 0.00, 6.93, 0.00, 0.00, 0.000, 0.000, 0.000, 16:19:03.645, 1556921943645
28, 0.00, 0.00, 0.00, 0.00, 0.000, 0.000, 0.000, 16:19:03.645, 1556921943645
29, 0.00, 3.56, 0.00, 0.00, 0.000, 0.000, 0.000, 16:19:03.645, 1556921943645
30, 0.00, 2.76, 0.00, 0.00, 0.000, 0.000, 0.000, 16:19:03.645, 1556921943645
31, 0.00, 4.41, 0.00, 0.00, 0.000, 0.000, 0.000, 16:19:03.659, 1556921943659
32, 0.00, 6.06, 0.00, 0.00, 0.000, 0.000, 0.000, 16:19:03.659, 1556921943659
33, 0.00, 7.45, 0.00, 0.00, 0.000, 0.000, 0.000, 16:19:03.675, 1556921943675
34, 0.00, 3.24, 0.00, 0.00, 0.000, 0.000, 0.000, 16:19:03.675, 1556921943675
35, 0.00, 4.46, 0.00, 0.00, 0.000, 0.000, 0.000, 16:19:03.676, 1556921943676
36, 0.00, 9.11, 0.00, 0.00, 0.000, 0.000, 0.000, 16:19:03.676, 1556921943676
37, 0.00, 6.83, 0.00, 0.00, 0.000, 0.000, 0.000, 16:19:03.689, 1556921943689
38, 0.00, 2.78, 0.00, 0.00, 0.000, 0.000, 0.000, 16:19:03.689, 1556921943689
39, 0.00, 10.89, 0.00, 0.00, 0.000, 0.000, 0.000, 16:19:03.705, 1556921943705
40, 0.00, 11.62, 0.00, 0.00, 0.000, 0.000, 0.000, 16:19:03.705, 1556921943705
41, 0.00, 11.83, 0.00, 0.00, 0.000, 0.000, 0.000, 16:19:03.706, 1556921943706
42, 0.00, 16.60, 0.00, 0.00, 0.000, 0.000, 0.000, 16:19:03.706, 1556921943706
43, 0.00, 10.85, 0.00, 0.00, 0.000, 0.000, 0.000, 16:19:03.719, 1556921943719
44, 0.00, 10.83, 0.00, 0.00, 0.000, 0.000, 0.000, 16:19:03.719, 1556921943719
45, 0.00, 9.61, 0.00, 0.00, 0.000, 0.000, 0.000, 16:19:03.735, 1556921943735
46, 0.00, 12.52, 0.00, 0.00, 0.000, 0.000, 0.000, 16:19:03.735, 1556921943735
47, 0.00, 11.87, 0.00, 0.00, 0.000, 0.000, 0.000, 16:19:03.737, 1556921943737
48, 0.00, 10.77, 0.00, 0.00, 0.000, 0.000, 0.000, 16:19:03.737, 1556921943737
49, 0.00, 19.40, 0.00, 0.00, 0.000, 0.000, 0.000, 16:19:03.749, 1556921943749
50, 0.00, 12.84, 0.00, 0.00, 0.000, 0.000, 0.000, 16:19:03.749, 1556921943749
51, 0.00, 10.58, 0.00, 0.00, 0.000, 0.000, 0.000, 16:19:03.765, 1556921943765
52, 0.00, 10.93, 0.00, 0.00, 0.000, 0.000, 0.000, 16:19:03.765, 1556921943765
53, 0.00, 6.67, 0.00, 0.00, 0.000, 0.000, 0.000, 16:19:03.765, 1556921943765
54, 0.00, 6.19, 0.00, 0.00, 0.000, 0.000, 0.000, 16:19:03.765, 1556921943765
55, 0.00, 12.48, 0.00, 0.00, 0.000, 0.000, 0.000, 16:19:03.779, 1556921943779
56, 0.00, 8.81, 0.00, 0.00, 0.000, 0.000, 0.000, 16:19:03.779, 1556921943779
57, 0.00, 7.06, 0.00, 0.00, 0.000, 0.000, 0.000, 16:19:03.795, 1556921943795
58, 0.00, 2.65, 0.00, 0.00, 0.000, 0.000, 0.000, 16:19:03.795, 1556921943795
59, 0.00, 8.01, 0.00, 0.00, 0.000, 0.000, 0.000, 16:19:03.796, 1556921943796
60, 0.00, 8.70, 0.00, 0.00, 0.000, 0.000, 0.000, 16:19:03.796, 1556921943796
61, 0.00, 3.86, 0.00, 0.00, 0.000, 0.000, 0.000, 16:19:03.809, 1556921943809
62, 0.00, 3.92, 0.00, 0.00, 0.000, 0.000, 0.000, 16:19:03.809, 1556921943809
63, 0.00, 9.50, 0.00, 0.00, 0.000, 0.000, 0.000, 16:19:03.824, 1556921943824
64, 0.00, 1.43, 0.00, 0.00, 0.000, 0.000, 0.000, 16:19:03.825, 1556921943825
65, 0.00, 4.13, 0.00, 0.00, 0.000, 0.000, 0.000, 16:19:03.825, 1556921943825
66, 0.00, 6.84, 0.00, 0.00, 0.000, 0.000, 0.000, 16:19:03.825, 1556921943825
67, 0.00, 5.50, 0.00, 0.00, 0.000, 0.000, 0.000, 16:19:03.839, 1556921943839
68, 0.00, -0.53, 0.00, 0.00, 0.000, 0.000, 0.000, 16:19:03.839, 1556921943839
69, 0.00, 2.77, 0.00, 0.00, 0.000, 0.000, 0.000, 16:19:03.854, 1556921943854
70, 0.00, 0.70, 0.00, 0.00, 0.000, 0.000, 0.000, 16:19:03.854, 1556921943854
71, 0.00, -2.34, 0.00, 0.00, 0.000, 0.000, 0.000, 16:19:03.855, 1556921943855
72, 0.00, 1.60, 0.00, 0.00, 0.000, 0.000, 0.000, 16:19:03.855, 1556921943855
73, 0.00, 0.66, 0.00, 0.00, 0.000, 0.000, 0.000, 16:19:03.870, 1556921943870
74, 0.00, -3.98, 0.00, 0.00, 0.000, 0.000, 0.000, 16:19:03.870, 1556921943870
75, 0.00, -2.57, 0.00, 0.00, 0.000, 0.000, 0.000, 16:19:03.885, 1556921943885
76, 0.00, -1.47, 0.00, 0.00, 0.000, 0.000, 0.000, 16:19:03.885, 1556921943885
77, 0.00, -1.41, 0.00, 0.00, 0.000, 0.000, 0.000, 16:19:03.886, 1556921943886
78, 0.00, -3.76, 0.00, 0.00, 0.000, 0.000, 0.000, 16:19:03.886, 1556921943886
79, 0.00, -2.78, 0.00, 0.00, 0.000, 0.000, 0.000, 16:19:03.899, 1556921943899
80, 0.00, -2.72, 0.00, 0.00, 0.000, 0.000, 0.000, 16:19:03.899, 1556921943899
81, 0.00, 2.39, 0.00, 0.00, 0.000, 0.000, 0.000, 16:19:03.915, 1556921943915
82, 0.00, 1.36, 0.00, 0.00, 0.000, 0.000, 0.000, 16:19:03.915, 1556921943915
83, 0.00, -1.09, 0.00, 0.00, 0.000, 0.000, 0.000, 16:19:03.916, 1556921943916
84, 0.00, 1.95, 0.00, 0.00, 0.000, 0.000, 0.000, 16:19:03.916, 1556921943916
85, 0.00, -0.48, 0.00, 0.00, 0.000, 0.000, 0.000, 16:19:03.929, 1556921943929
86, 0.00, -0.50, 0.00, 0.00, 0.000, 0.000, 0.000, 16:19:03.929, 1556921943929
87, 0.00, 0.71, 0.00, 0.00, 0.000, 0.000, 0.000, 16:19:03.945, 1556921943945
88, 0.00, 1.12, 0.00, 0.00, 0.000, 0.000, 0.000, 16:19:03.945, 1556921943945
89, 0.00, 4.75, 0.00, 0.00, 0.000, 0.000, 0.000, 16:19:03.945, 1556921943945
90, 0.00, 1.34, 0.00, 0.00, 0.000, 0.000, 0.000, 16:19:03.945, 1556921943945
91, 0.00, 0.50, 0.00, 0.00, 0.000, 0.000, 0.000, 16:19:03.975, 1556921943975
92, 0.00, 5.67, 0.00, 0.00, 0.000, 0.000, 0.000, 16:19:03.975, 1556921943975
93, 0.00, 4.94, 0.00, 0.00, 0.000, 0.000, 0.000, 16:19:03.983, 1556921943983
94, 0.00, 6.93, 0.00, 0.00, 0.000, 0.000, 0.000, 16:19:03.983, 1556921943983
95, 0.00, 11.75, 0.00, 0.00, 0.000, 0.000, 0.000, 16:19:03.984, 1556921943984
96, 0.00, 11.06, 0.00, 0.00, 0.000, 0.000, 0.000, 16:19:03.984, 1556921943984
97, 0.00, 10.24, 0.00, 0.00, 0.000, 0.000, 0.000, 16:19:03.989, 1556921943989
98, 0.00, 13.45, 0.00, 0.00, 0.000, 0.000, 0.000, 16:19:03.989, 1556921943989
99, 0.00, 12.17, 0.00, 0.00, 0.000, 0.000, 0.000, 16:19:04.005, 1556921944005
100, 0.00, 14.88, 0.00, 0.00, 0.000, 0.000, 0.000, 16:19:04.005, 1556921944005
101, 0.00, 19.14, 0.00, 0.00, 0.000, 0.000, 0.000, 16:19:04.006, 1556921944006
102, 0.00, 19.75, 0.00, 0.00, 0.000, 0.000, 0.000, 16:19:04.006, 1556921944006
103, 0.00, 22.25, 0.00, 0.00, 0.000, 0.000, 0.000, 16:19:04.018, 1556921944018
104, 0.00, 23.26, 0.00, 0.00, 0.000, 0.000, 0.000, 16:19:04.018, 1556921944018
105, 0.00, 27.19, 0.00, 0.00, 0.000, 0.000, 0.000, 16:19:04.034, 1556921944034
106, 0.00, 29.90, 0.00, 0.00, 0.000, 0.000, 0.000, 16:19:04.034, 1556921944034
107, 0.00, 29.80, 0.00, 0.00, 0.000, 0.000, 0.000, 16:19:04.036, 1556921944036
108, 0.00, 26.98, 0.00, 0.00, 0.000, 0.000, 0.000, 16:19:04.036, 1556921944036
109, 0.00, 26.10, 0.00, 0.00, 0.000, 0.000, 0.000, 16:19:04.050, 1556921944050
110, 0.00, 25.10, 0.00, 0.00, 0.000, 0.000, 0.000, 16:19:04.050, 1556921944050
111, 0.00, 22.37, 0.00, 0.00, 0.000, 0.000, 0.000, 16:19:04.065, 1556921944065
112, 0.00, 27.90, 0.00, 0.00, 0.000, 0.000, 0.000, 16:19:04.065, 1556921944065
113, 0.00, 28.55, 0.00, 0.00, 0.000, 0.000, 0.000, 16:19:04.066, 1556921944066
114, 0.00, 22.81, 0.00, 0.00, 0.000, 0.000, 0.000, 16:19:04.066, 1556921944066
115, 0.00, 25.60, 0.00, 0.00, 0.000, 0.000, 0.000, 16:19:04.079, 1556921944079
116, 0.00, 26.12, 0.00, 0.00, 0.000, 0.000, 0.000, 16:19:04.079, 1556921944079
117, 0.00, 25.28, 0.00, 0.00, 0.000, 0.000, 0.000, 16:19:04.094, 1556921944094
118, 0.00, 26.02, 0.00, 0.00, 0.000, 0.000, 0.000, 16:19:04.094, 1556921944094
119, 0.00, 26.64, 0.00, 0.00, 0.000, 0.000, 0.000, 16:19:04.095, 1556921944095
120, 0.00, 24.07, 0.00, 0.00, 0.000, 0.000, 0.000, 16:19:04.095, 1556921944095
121, 0.00, 18.11, 0.00, 0.00, 0.000, 0.000, 0.000, 16:19:04.109, 1556921944109
122, 0.00, 20.75, 0.00, 0.00, 0.000, 0.000, 0.000, 16:19:04.109, 1556921944109
123, 0.00, 23.05, 0.00, 0.00, 0.000, 0.000, 0.000, 16:19:04.124, 1556921944124
124, 0.00, 16.66, 0.00, 0.00, 0.000, 0.000, 0.000, 16:19:04.124, 1556921944124
125, 0.00, 19.94, 0.00, 0.00, 0.000, 0.000, 0.000, 16:19:04.125, 1556921944125
126, 0.00, 24.83, 0.00, 0.00, 0.000, 0.000, 0.000, 16:19:04.125, 1556921944125
127, 0.00, 21.27, 0.00, 0.00, 0.000, 0.000, 0.000, 16:19:04.139, 1556921944139
128, 0.00, 20.04, 0.00, 0.00, 0.000, 0.000, 0.000, 16:19:04.139, 1556921944139
129, 0.00, 14.08, 0.00, 0.00, 0.000, 0.000, 0.000, 16:19:04.154, 1556921944154
130, 0.00, 19.64, 0.00, 0.00, 0.000, 0.000, 0.000, 16:19:04.154, 1556921944154
131, 0.00, 14.81, 0.00, 0.00, 0.000, 0.000, 0.000, 16:19:04.155, 1556921944155
132, 0.00, 22.64, 0.00, 0.00, 0.000, 0.000, 0.000, 16:19:04.155, 1556921944155
133, 0.00, 21.61, 0.00, 0.00, 0.000, 0.000, 0.000, 16:19:04.169, 1556921944169
134, 0.00, 15.46, 0.00, 0.00, 0.000, 0.000, 0.000, 16:19:04.169, 1556921944169
135, 0.00, 15.12, 0.00, 0.00, 0.000, 0.000, 0.000, 16:19:04.184, 1556921944184
136, 0.00, 19.64, 0.00, 0.00, 0.000, 0.000, 0.000, 16:19:04.184, 1556921944184
137, 0.00, 16.35, 0.00, 0.00, 0.000, 0.000, 0.000, 16:19:04.186, 1556921944186
138, 0.00, 10.20, 0.00, 0.00, 0.000, 0.000, 0.000, 16:19:04.186, 1556921944186
139, 0.00, 14.61, 0.00, 0.00, 0.000, 0.000, 0.000, 16:19:04.199, 1556921944199
140, 0.00, 16.11, 0.00, 0.00, 0.000, 0.000, 0.000, 16:19:04.199, 1556921944199
141, 0.00, 16.92, 0.00, 0.00, 0.000, 0.000, 0.000, 16:19:04.215, 1556921944215
142, 0.00, 18.13, 0.00, 0.00, 0.000, 0.000, 0.000, 16:19:04.215, 1556921944215
143, 0.00, 16.05, 0.00, 0.00, 0.000, 0.000, 0.000, 16:19:04.217, 1556921944217
144, 0.00, 12.92, 0.00, 0.00, 0.000, 0.000, 0.000, 16:19:04.217, 1556921944217
145, 0.00, 11.11, 0.00, 0.00, 0.000, 0.000, 0.000, 16:19:04.229, 1556921944229
146, 0.00, 2.04, 0.00, 0.00, 0.000, 0.000, 0.000, 16:19:04.229, 1556921944229
147, 0.00, 4.72, 0.00, 0.00, 0.000, 0.000, 0.000, 16:19:04.244, 1556921944244
148, 0.00, -1.06, 0.00, 0.00, 0.000, 0.000, 0.000, 16:19:04.244, 1556921944244
149, 0.00, -1.22, 0.00, 0.00, 0.000, 0.000, 0.000, 16:19:04.245, 1556921944245
150, 0.00, 5.12, 0.00, 0.00, 0.000, 0.000, 0.000, 16:19:04.245, 1556921944245
151, 0.00, 5.05, 0.00, 0.00, 0.000, 0.000, 0.000, 16:19:04.259, 1556921944259
152, 0.00, 5.65, 0.00, 0.00, 0.000, 0.000, 0.000, 16:19:04.259, 1556921944259
153, 0.00, 3.92, 0.00, 0.00, 0.000, 0.000, 0.000, 16:19:04.274, 1556921944274
154, 0.00, 7.40, 0.00, 0.00, 0.000, 0.000, 0.000, 16:19:04.274, 1556921944274
155, 0.00, 11.57, 0.00, 0.00, 0.000, 0.000, 0.000, 16:19:04.289, 1556921944289
156, 0.00, 15.45, 0.00, 0.00, 0.000, 0.000, 0.000, 16:19:04.289, 1556921944289
157, 0.00, 14.59, 0.00, 0.00, 0.000, 0.000, 0.000, 16:19:04.290, 1556921944290
158, 0.00, 14.57, 0.00, 0.00, 0.000, 0.000, 0.000, 16:19:04.290, 1556921944290
159, 0.00, 26.25, 0.00, 0.00, 0.000, 0.000, 0.000, 16:19:04.305, 1556921944305
160, 0.00, 17.25, 0.00, 0.00, 0.000, 0.000, 0.000, 16:19:04.305, 1556921944305
161, 0.00, 44.97, 0.00, 0.00, 0.000, 0.000, 0.000, 16:19:04.308, 1556921944308
162, 0.00, 77.46, 0.00, 0.00, 0.000, 0.000, 0.000, 16:19:04.308, 1556921944308
163, 0.00, 103.45, 0.00, 0.00, 0.000, 0.000, 0.000, 16:19:04.320, 1556921944320
164, 0.00, 123.87, 0.00, 0.00, 0.000, 0.000, 0.000, 16:19:04.320, 1556921944320
165, 0.00, 151.71, 0.00, 0.00, 0.000, 0.000, 0.000, 16:19:04.340, 1556921944340
166, 0.00, 161.61, 0.00, 0.00, 0.000, 0.000, 0.000, 16:19:04.340, 1556921944340
167, 0.00, 152.34, 0.00, 0.00, 0.000, 0.000, 0.000, 16:19:04.340, 1556921944340
168, 0.00, 154.07, 0.00, 0.00, 0.000, 0.000, 0.000, 16:19:04.340, 1556921944340
169, 0.00, 155.62, 0.00, 0.00, 0.000, 0.000, 0.000, 16:19:04.349, 1556921944349
170, 0.00, 150.71, 0.00, 0.00, 0.000, 0.000, 0.000, 16:19:04.349, 1556921944349
171, 0.00, 136.55, 0.00, 0.00, 0.000, 0.000, 0.000, 16:19:04.365, 1556921944365
172, 0.00, 136.85, 0.00, 0.00, 0.000, 0.000, 0.000, 16:19:04.365, 1556921944365
173, 0.00, 125.80, 0.00, 0.00, 0.000, 0.000, 0.000, 16:19:04.366, 1556921944366
174, 0.00, 118.67, 0.00, 0.00, 0.000, 0.000, 0.000, 16:19:04.366, 1556921944366
175, 0.00, 109.37, 0.00, 0.00, 0.000, 0.000, 0.000, 16:19:04.379, 1556921944379
176, 0.00, 97.35, 0.00, 0.00, 0.000, 0.000, 0.000, 16:19:04.379, 1556921944379
177, 0.00, 87.80, 0.00, 0.00, 0.000, 0.000, 0.000, 16:19:04.395, 1556921944395
178, 0.00, 81.89, 0.00, 0.00, 0.000, 0.000, 0.000, 16:19:04.395, 1556921944395
179, 0.00, 77.07, 0.00, 0.00, 0.000, 0.000, 0.000, 16:19:04.396, 1556921944396
180, 0.00, 66.67, 0.00, 0.00, 0.000, 0.000, 0.000, 16:19:04.396, 1556921944396
181, 0.00, 55.39, 0.00, 0.00, 0.000, 0.000, 0.000, 16:19:04.409, 1556921944409
182, 0.00, 53.95, 0.00, 0.00, 0.000, 0.000, 0.000, 16:19:04.409, 1556921944409
183, 0.00, 47.46, 0.00, 0.00, 0.000, 0.000, 0.000, 16:19:04.425, 1556921944425
184, 0.00, 37.95, 0.00, 0.00, 0.000, 0.000, 0.000, 16:19:04.425, 1556921944425
185, 0.00, 33.42, 0.00, 0.00, 0.000, 0.000, 0.000, 16:19:04.426, 1556921944426
186, 0.00, 27.56, 0.00, 0.00, 0.000, 0.000, 0.000, 16:19:04.426, 1556921944426
187, 0.00, 23.18, 0.00, 0.00, 0.000, 0.000, 0.000, 16:19:04.439, 1556921944439
188, 0.00, 18.29, 0.00, 0.00, 0.000, 0.000, 0.000, 16:19:04.439, 1556921944439
189, 0.00, 12.43, 0.00, 0.00, 0.000, 0.000, 0.000, 16:19:04.455, 1556921944455
190, 0.00, 10.39, 0.00, 0.00, 0.000, 0.000, 0.000, 16:19:04.455, 1556921944455
191, 0.00, 5.66, 0.00, 0.00, 0.000, 0.000, 0.000, 16:19:04.456, 1556921944456
192, 0.00, -1.34, 0.00, 0.00, 0.000, 0.000, 0.000, 16:19:04.456, 1556921944456
193, 0.00, -1.52, 0.00, 0.00, 0.000, 0.000, 0.000, 16:19:04.469, 1556921944469
194, 0.00, -4.23, 0.00, 0.00, 0.000, 0.000, 0.000, 16:19:04.469, 1556921944469
195, 0.00, -7.64, 0.00, 0.00, 0.000, 0.000, 0.000, 16:19:04.485, 1556921944485
196, 0.00, -6.11, 0.00, 0.00, 0.000, 0.000, 0.000, 16:19:04.485, 1556921944485
197, 0.00, -8.97, 0.00, 0.00, 0.000, 0.000, 0.000, 16:19:04.486, 1556921944486
198, 0.00, -11.84, 0.00, 0.00, 0.000, 0.000, 0.000, 16:19:04.486, 1556921944486
199, 0.00, -16.80, 0.00, 0.00, 0.000, 0.000, 0.000, 16:19:04.500, 1556921944500
200, 0.00, -13.65, 0.00, 0.00, 0.000, 0.000, 0.000, 16:19:04.500, 1556921944500
0, 0.00, -16.16, 0.00, 0.00, 0.000, 0.000, 0.000, 16:19:04.500, 1556921944500
1, 0.00, -17.65, 0.00, 0.00, 0.000, 0.000, 0.000, 16:19:04.514, 1556921944514
2, 0.00, -19.17, 0.00, 0.00, 0.000, 0.000, 0.000, 16:19:04.514, 1556921944514
3, 0.00, -22.46, 0.00, 0.00, 0.000, 0.000, 0.000, 16:19:04.530, 1556921944530
4, 0.00, -18.64, 0.00, 0.00, 0.000, 0.000, 0.000, 16:19:04.530, 1556921944530
5, 0.00, -19.20, 0.00, 0.00, 0.000, 0.000, 0.000, 16:19:04.531, 1556921944531
6, 0.00, -21.88, 0.00, 0.00, 0.000, 0.000, 0.000, 16:19:04.531, 1556921944531
7, 0.00, -22.65, 0.00, 0.00, 0.000, 0.000, 0.000, 16:19:04.544, 1556921944544
8, 0.00, -25.41, 0.00, 0.00, 0.000, 0.000, 0.000, 16:19:04.544, 1556921944544
9, 0.00, -24.12, 0.00, 0.00, 0.000, 0.000, 0.000, 16:19:04.560, 1556921944560
10, 0.00, -23.94, 0.00, 0.00, 0.000, 0.000, 0.000, 16:19:04.560, 1556921944560
11, 0.00, -18.73, 0.00, 0.00, 0.000, 0.000, 0.000, 16:19:04.561, 1556921944561
12, 0.00, -19.25, 0.00, 0.00, 0.000, 0.000, 0.000, 16:19:04.561, 1556921944561
13, 0.00, -20.95, 0.00, 0.00, 0.000, 0.000, 0.000, 16:19:04.574, 1556921944574
14, 0.00, -18.01, 0.00, 0.00, 0.000, 0.000, 0.000, 16:19:04.574, 1556921944574
15, 0.00, -10.49, 0.00, 0.00, 0.000, 0.000, 0.000, 16:19:04.590, 1556921944590
16, 0.00, -11.54, 0.00, 0.00, 0.000, 0.000, 0.000, 16:19:04.590, 1556921944590
17, 0.00, -8.30, 0.00, 0.00, 0.000, 0.000, 0.000, 16:19:04.591, 1556921944591
18, 0.00, -5.69, 0.00, 0.00, 0.000, 0.000, 0.000, 16:19:04.591, 1556921944591
19, 0.00, -5.00, 0.00, 0.00, 0.000, 0.000, 0.000, 16:19:04.604, 1556921944604
20, 0.00, -7.06, 0.00, 0.00, 0.000, 0.000, 0.000, 16:19:04.604, 1556921944604
21, 0.00, -4.99, 0.00, 0.00, 0.000, 0.000, 0.000, 16:19:04.620, 1556921944620
22, 0.00, -4.69, 0.00, 0.00, 0.000, 0.000, 0.000, 16:19:04.620, 1556921944620
23, 0.00, -8.78, 0.00, 0.00, 0.000, 0.000, 0.000, 16:19:04.621, 1556921944621
24, 0.00, -6.61, 0.00, 0.00, 0.000, 0.000, 0.000, 16:19:04.621, 1556921944621
25, 0.00, -4.83, 0.00, 0.00, 0.000, 0.000, 0.000, 16:19:04.634, 1556921944634
26, 0.00, -8.96, 0.00, 0.00, 0.000, 0.000, 0.000, 16:19:04.634, 1556921944634
27, 0.00, -6.20, 0.00, 0.00, 0.000, 0.000, 0.000, 16:19:04.650, 1556921944650
28, 0.00, -3.78, 0.00, 0.00, 0.000, 0.000, 0.000, 16:19:04.650, 1556921944650
29, 0.00, -6.48, 0.00, 0.00, 0.000, 0.000, 0.000, 16:19:04.651, 1556921944651
30, 0.00, -9.34, 0.00, 0.00, 0.000, 0.000, 0.000, 16:19:04.651, 1556921944651
31, 0.00, -1.03, 0.00, 0.00, 0.000, 0.000, 0.000, 16:19:04.664, 1556921944664
32, 0.00, -5.03, 0.00, 0.00, 0.000, 0.000, 0.000, 16:19:04.664, 1556921944664
33, 0.00, -7.20, 0.00, 0.00, 0.000, 0.000, 0.000, 16:19:04.680, 1556921944680
34, 0.00, -2.54, 0.00, 0.00, 0.000, 0.000, 0.000, 16:19:04.680, 1556921944680
35, 0.00, -1.59, 0.00, 0.00, 0.000, 0.000, 0.000, 16:19:04.681, 1556921944681
36, 0.00, -7.90, 0.00, 0.00, 0.000, 0.000, 0.000, 16:19:04.681, 1556921944681
37, 0.00, -7.63, 0.00, 0.00, 0.000, 0.000, 0.000, 16:19:04.694, 1556921944694
38, 0.00, -3.10, 0.00, 0.00, 0.000, 0.000, 0.000, 16:19:04.694, 1556921944694
39, 0.00, -9.66, 0.00, 0.00, 0.000, 0.000, 0.000, 16:19:04.710, 1556921944710
40, 0.00, -6.90, 0.00, 0.00, 0.000, 0.000, 0.000, 16:19:04.710, 1556921944710
41, 0.00, -8.95, 0.00, 0.00, 0.000, 0.000, 0.000, 16:19:04.711, 1556921944711
42, 0.00, -13.40, 0.00, 0.00, 0.000, 0.000, 0.000, 16:19:04.711, 1556921944711
43, 0.00, -15.90, 0.00, 0.00, 0.000, 0.000, 0.000, 16:19:04.726, 1556921944726
44, 0.00, -13.70, 0.00, 0.00, 0.000, 0.000, 0.000, 16:19:04.726, 1556921944726
45, 0.00, -14.79, 0.00, 0.00, 0.000, 0.000, 0.000, 16:19:04.740, 1556921944740
46, 0.00, -16.04, 0.00, 0.00, 0.000, 0.000, 0.000, 16:19:04.740, 1556921944740
47, 0.00, -20.51, 0.00, 0.00, 0.000, 0.000, 0.000, 16:19:04.741, 1556921944741
48, 0.00, -13.05, 0.00, 0.00, 0.000, 0.000, 0.000, 16:19:04.741, 1556921944741
49, 0.00, -17.32, 0.00, 0.00, 0.000, 0.000, 0.000, 16:19:04.755, 1556921944755
50, 0.00, -16.68, 0.00, 0.00, 0.000, 0.000, 0.000, 16:19:04.755, 1556921944755
51, 0.00, -13.37, 0.00, 0.00, 0.000, 0.000, 0.000, 16:19:04.770, 1556921944770
52, 0.00, -11.57, 0.00, 0.00, 0.000, 0.000, 0.000, 16:19:04.770, 1556921944770
53, 0.00, -13.98, 0.00, 0.00, 0.000, 0.000, 0.000, 16:19:04.771, 1556921944771
54, 0.00, -12.11, 0.00, 0.00, 0.000, 0.000, 0.000, 16:19:04.771, 1556921944771
55, 0.00, -16.39, 0.00, 0.00, 0.000, 0.000, 0.000, 16:19:04.784, 1556921944784
56, 0.00, -14.79, 0.00, 0.00, 0.000, 0.000, 0.000, 16:19:04.784, 1556921944784
57, 0.00, -15.50, 0.00, 0.00, 0.000, 0.000, 0.000, 16:19:04.800, 1556921944800
58, 0.00, -17.18, 0.00, 0.00, 0.000, 0.000, 0.000, 16:19:04.800, 1556921944800
59, 0.00, -18.38, 0.00, 0.00, 0.000, 0.000, 0.000, 16:19:04.801, 1556921944801
60, 0.00, -16.82, 0.00, 0.00, 0.000, 0.000, 0.000, 16:19:04.801, 1556921944801
61, 0.00, -17.78, 0.00, 0.00, 0.000, 0.000, 0.000, 16:19:04.814, 1556921944814
62, 0.00, -16.78, 0.00, 0.00, 0.000, 0.000, 0.000, 16:19:04.814, 1556921944814
63, 0.00, -22.59, 0.00, 0.00, 0.000, 0.000, 0.000, 16:19:04.830, 1556921944830
64, 0.00, -21.88, 0.00, 0.00, 0.000, 0.000, 0.000, 16:19:04.830, 1556921944830
65, 0.00, -21.27, 0.00, 0.00, 0.000, 0.000, 0.000, 16:19:04.830, 1556921944830
66, 0.00, -22.56, 0.00, 0.00, 0.000, 0.000, 0.000, 16:19:04.830, 1556921944830
67, 0.00, -21.98, 0.00, 0.00, 0.000, 0.000, 0.000, 16:19:04.844, 1556921944844
68, 0.00, -17.10, 0.00, 0.00, 0.000, 0.000, 0.000, 16:19:04.844, 1556921944844
69, 0.00, -20.59, 0.00, 0.00, 0.000, 0.000, 0.000, 16:19:04.859, 1556921944859
70, 0.00, -20.91, 0.00, 0.00, 0.000, 0.000, 0.000, 16:19:04.859, 1556921944859
71, 0.00, -21.62, 0.00, 0.00, 0.000, 0.000, 0.000, 16:19:04.860, 1556921944860
72, 0.00, -22.70, 0.00, 0.00, 0.000, 0.000, 0.000, 16:19:04.860, 1556921944860
73, 0.00, -29.40, 0.00, 0.00, 0.000, 0.000, 0.000, 16:19:04.874, 1556921944874
74, 0.00, -24.50, 0.00, 0.00, 0.000, 0.000, 0.000, 16:19:04.874, 1556921944874
75, 0.00, -27.38, 0.00, 0.00, 0.000, 0.000, 0.000, 16:19:04.889, 1556921944889
76, 0.00, -30.39, 0.00, 0.00, 0.000, 0.000, 0.000, 16:19:04.889, 1556921944889
77, 0.00, -28.22, 0.00, 0.00, 0.000, 0.000, 0.000, 16:19:04.891, 1556921944891
78, 0.00, -27.28, 0.00, 0.00, 0.000, 0.000, 0.000, 16:19:04.891, 1556921944891
79, 0.00, -29.47, 0.00, 0.00, 0.000, 0.000, 0.000, 16:19:04.903, 1556921944903
80, 0.00, -28.93, 0.00, 0.00, 0.000, 0.000, 0.000, 16:19:04.903, 1556921944903
81, 0.00, -27.00, 0.00, 0.00, 0.000, 0.000, 0.000, 16:19:04.920, 1556921944920
82, 0.00, -39.51, 0.00, 0.00, 0.000, 0.000, 0.000, 16:19:04.920, 1556921944920
83, 0.00, -31.82, 0.00, 0.00, 0.000, 0.000, 0.000, 16:19:04.924, 1556921944924
84, 0.00, -24.22, 0.00, 0.00, 0.000, 0.000, 0.000, 16:19:04.924, 1556921944924
85, 0.00, -28.43, 0.00, 0.00, 0.000, 0.000, 0.000, 16:19:04.934, 1556921944934
86, 0.00, -24.01, 0.00, 0.00, 0.000, 0.000, 0.000, 16:19:04.934, 1556921944934
87, 0.00, -26.21, 0.00, 0.00, 0.000, 0.000, 0.000, 16:19:04.951, 1556921944951
88, 0.00, -29.93, 0.00, 0.00, 0.000, 0.000, 0.000, 16:19:04.951, 1556921944951
89, 0.00, -28.11, 0.00, 0.00, 0.000, 0.000, 0.000, 16:19:04.952, 1556921944952
90, 0.00, -33.13, 0.00, 0.00, 0.000, 0.000, 0.000, 16:19:04.952, 1556921944952
91, 0.00, -30.93, 0.00, 0.00, 0.000, 0.000, 0.000, 16:19:04.964, 1556921944964
92, 0.00, -26.96, 0.00, 0.00, 0.000, 0.000, 0.000, 16:19:04.964, 1556921944964
93, 0.00, -27.42, 0.00, 0.00, 0.000, 0.000, 0.000, 16:19:04.980, 1556921944980
94, 0.00, -28.55, 0.00, 0.00, 0.000, 0.000, 0.000, 16:19:04.980, 1556921944980
95, 0.00, -28.21, 0.00, 0.00, 0.000, 0.000, 0.000, 16:19:04.980, 1556921944980
96, 0.00, -28.06, 0.00, 0.00, 0.000, 0.000, 0.000, 16:19:04.980, 1556921944980
97, 0.00, -27.71, 0.00, 0.00, 0.000, 0.000, 0.000, 16:19:04.994, 1556921944994
98, 0.00, -25.02, 0.00, 0.00, 0.000, 0.000, 0.000, 16:19:04.994, 1556921944994
99, 0.00, -24.31, 0.00, 0.00, 0.000, 0.000, 0.000, 16:19:05.010, 1556921945010
100, 0.00, -27.18, 0.00, 0.00, 0.000, 0.000, 0.000, 16:19:05.010, 1556921945010
101, 0.00, -21.57, 0.00, 0.00, 0.000, 0.000, 0.000, 16:19:05.011, 1556921945011
102, 0.00, -23.19, 0.00, 0.00, 0.000, 0.000, 0.000, 16:19:05.011, 1556921945011
103, 0.00, -19.97, 0.00, 0.00, 0.000, 0.000, 0.000, 16:19:05.024, 1556921945024
104, 0.00, -24.95, 0.00, 0.00, 0.000, 0.000, 0.000, 16:19:05.024, 1556921945024
105, 0.00, -22.07, 0.00, 0.00, 0.000, 0.000, 0.000, 16:19:05.040, 1556921945040
106, 0.00, -22.86, 0.00, 0.00, 0.000, 0.000, 0.000, 16:19:05.040, 1556921945040
107, 0.00, -22.02, 0.00, 0.00, 0.000, 0.000, 0.000, 16:19:05.041, 1556921945041
108, 0.00, -24.20, 0.00, 0.00, 0.000, 0.000, 0.000, 16:19:05.041, 1556921945041
109, 0.00, -24.23, 0.00, 0.00, 0.000, 0.000, 0.000, 16:19:05.054, 1556921945054
110, 0.00, -24.75, 0.00, 0.00, 0.000, 0.000, 0.000, 16:19:05.054, 1556921945054
111, 0.00, -25.35, 0.00, 0.00, 0.000, 0.000, 0.000, 16:19:05.086, 1556921945086
112, 0.00, -31.92, 0.00, 0.00, 0.000, 0.000, 0.000, 16:19:05.086, 1556921945086
113, 0.00, -26.04, 0.00, 0.00, 0.000, 0.000, 0.000, 16:19:05.087, 1556921945087
114, 0.00, -29.31, 0.00, 0.00, 0.000, 0.000, 0.000, 16:19:05.087, 1556921945087
115, 0.00, -35.20, 0.00, 0.00, 0.000, 0.000, 0.000, 16:19:05.088, 1556921945088
116, 0.00, -26.53, 0.00, 0.00, 0.000, 0.000, 0.000, 16:19:05.088, 1556921945088
117, 0.00, -33.53, 0.00, 0.00, 0.000, 0.000, 0.000, 16:19:05.089, 1556921945089
118, 0.00, -35.61, 0.00, 0.00, 0.000, 0.000, 0.000, 16:19:05.089, 1556921945089
119, 0.00, -38.75, 0.00, 0.00, 0.000, 0.000, 0.000, 16:19:05.099, 1556921945099
120, 0.00, -36.78, 0.00, 0.00, 0.000, 0.000, 0.000, 16:19:05.099, 1556921945099
121, 0.00, -37.34, 0.00, 0.00, 0.000, 0.000, 0.000, 16:19:05.113, 1556921945113
122, 0.00, -45.97, 0.00, 0.00, 0.000, 0.000, 0.000, 16:19:05.113, 1556921945113
123, 0.00, -64.12, 0.00, 0.00, 0.000, 0.000, 0.000, 16:19:05.130, 1556921945130
124, 0.00, -1.43, 0.00, 0.00, 0.000, 0.000, 0.000, 16:19:05.130, 1556921945130
125, 0.00, -111.05, 0.00, 0.00, 0.000, 0.000, 0.000, 16:19:05.131, 1556921945131
126, 0.00, 53.59, 0.00, 0.00, 0.000, 0.000, 0.000, 16:19:05.131, 1556921945131
127, 0.00, -12.99, 0.00, 0.00, 0.000, 0.000, 0.000, 16:19:05.144, 1556921945144
128, 0.00, 17.10, 0.00, 0.00, 0.000, 0.000, 0.000, 16:19:05.144, 1556921945144
129, 0.00, -114.66, 0.00, 0.00, 0.000, 0.000, 0.000, 16:19:05.160, 1556921945160
130, 0.00, -2.98, 0.00, 0.00, 0.000, 0.000, 0.000, 16:19:05.160, 1556921945160
131, 0.00, -245.58, 0.00, 0.00, 0.000, 0.000, 0.000, 16:19:05.160, 1556921945160
132, 0.00, -638.89, 0.00, 0.00, 0.000, 0.000, 0.000, 16:19:05.160, 1556921945160
133, 0.00, -1237.75, 0.00, 0.00, 0.000, 0.000, 0.000, 16:19:05.174, 1556921945174
134, 0.00, -1626.43, 0.00, 0.00, 0.000, 0.000, 0.000, 16:19:05.174, 1556921945174
135, 0.00, -1973.02, 0.00, 0.00, 0.000, 0.000, 0.000, 16:19:05.190, 1556921945190
136, 0.00, -2285.93, 0.00, 0.00, 0.000, 0.000, 0.000, 16:19:05.190, 1556921945190
137, 0.00, -2385.02, 0.00, 0.00, 0.000, 0.000, 0.000, 16:19:05.191, 1556921945191
138, 0.00, -2301.71, 0.00, 0.00, 0.000, 0.000, 0.000, 16:19:05.191, 1556921945191
139, 0.00, -2036.81, 0.00, 0.00, 0.000, 0.000, 0.000, 16:19:05.204, 1556921945204
140, 0.00, -1839.01, 0.00, 0.00, 0.000, 0.000, 0.000, 16:19:05.204, 1556921945204
141, 0.00, -1472.85, 0.00, 0.00, 0.000, 0.000, 0.000, 16:19:05.219, 1556921945219
142, 0.00, -988.38, 0.00, 0.00, 0.000, 0.000, 0.000, 16:19:05.219, 1556921945219
143, 0.00, -410.56, 0.00, 0.00, 0.000, 0.000, 0.000, 16:19:05.221, 1556921945221
144, 0.00, 164.19, 0.00, 0.00, 0.000, 0.000, 0.000, 16:19:05.221, 1556921945221
145, 0.00, 319.07, 0.00, 0.00, 0.000, 0.000, 0.000, 16:19:05.233, 1556921945233
146, 0.00, 643.93, 0.00, 0.00, 0.000, 0.000, 0.000, 16:19:05.233, 1556921945233
147, 0.00, 950.39, 0.00, 0.00, 0.000, 0.000, 0.000, 16:19:05.249, 1556921945249
148, 0.00, 885.74, 0.00, 0.00, 0.000, 0.000, 0.000, 16:19:05.249, 1556921945249
149, 0.00, 901.44, 0.00, 0.00, 0.000, 0.000, 0.000, 16:19:05.250, 1556921945250
150, 0.00, 854.95, 0.00, 0.00, 0.000, 0.000, 0.000, 16:19:05.250, 1556921945250
151, 0.00, 1052.29, 0.00, 0.00, 0.000, 0.000, 0.000, 16:19:05.264, 1556921945264
152, 0.00, 1002.08, 0.00, 0.00, 0.000, 0.000, 0.000, 16:19:05.264, 1556921945264
153, 0.00, 1091.89, 0.00, 0.00, 0.000, 0.000, 0.000, 16:19:05.284, 1556921945284
154, 0.00, 1455.80, 0.00, 0.00, 0.000, 0.000, 0.000, 16:19:05.284, 1556921945284
155, 0.00, 1234.11, 0.00, 0.00, 0.000, 0.000, 0.000, 16:19:05.285, 1556921945285
156, 0.00, 1471.60, 0.00, 0.00, 0.000, 0.000, 0.000, 16:19:05.285, 1556921945285
157, 0.00, 1345.41, 0.00, 0.00, 0.000, 0.000, 0.000, 16:19:05.294, 1556921945294
158, 0.00, 1426.11, 0.00, 0.00, 0.000, 0.000, 0.000, 16:19:05.294, 1556921945294
159, 0.00, 1558.97, 0.00, 0.00, 0.000, 0.000, 0.000, 16:19:05.311, 1556921945311
160, 0.00, 1530.75, 0.00, 0.00, 0.000, 0.000, 0.000, 16:19:05.311, 1556921945311
161, 0.00, 1588.96, 0.00, 0.00, 0.000, 0.000, 0.000, 16:19:05.312, 1556921945312
162, 0.00, 1555.07, 0.00, 0.00, 0.000, 0.000, 0.000, 16:19:05.312, 1556921945312
163, 0.00, 1742.81, 0.00, 0.00, 0.000, 0.000, 0.000, 16:19:05.325, 1556921945325
164, 0.00, 1618.03, 0.00, 0.00, 0.000, 0.000, 0.000, 16:19:05.325, 1556921945325
165, 0.00, 1660.34, 0.00, 0.00, 0.000, 0.000, 0.000, 16:19:05.339, 1556921945339
166, 0.00, 1660.02, 0.00, 0.00, 0.000, 0.000, 0.000, 16:19:05.339, 1556921945339
167, 0.00, 1693.05, 0.00, 0.00, 0.000, 0.000, 0.000, 16:19:05.341, 1556921945341
168, 0.00, 1643.52, 0.00, 0.00, 0.000, 0.000, 0.000, 16:19:05.341, 1556921945341
169, 0.00, 1500.90, 0.00, 0.00, 0.000, 0.000, 0.000, 16:19:05.354, 1556921945354
170, 0.00, 1664.29, 0.00, 0.00, 0.000, 0.000, 0.000, 16:19:05.354, 1556921945354
171, 0.00, 1530.87, 0.00, 0.00, 0.000, 0.000, 0.000, 16:19:05.370, 1556921945370
172, 0.00, 1411.52, 0.00, 0.00, 0.000, 0.000, 0.000, 16:19:05.370, 1556921945370
173, 0.00, 1512.57, 0.00, 0.00, 0.000, 0.000, 0.000, 16:19:05.371, 1556921945371
174, 0.00, 1412.52, 0.00, 0.00, 0.000, 0.000, 0.000, 16:19:05.371, 1556921945371
175, 0.00, 1228.92, 0.00, 0.00, 0.000, 0.000, 0.000, 16:19:05.384, 1556921945384
176, 0.00, 1157.72, 0.00, 0.00, 0.000, 0.000, 0.000, 16:19:05.384, 1556921945384
177, 0.00, 1180.38, 0.00, 0.00, 0.000, 0.000, 0.000, 16:19:05.400, 1556921945400
178, 0.00, 1223.39, 0.00, 0.00, 0.000, 0.000, 0.000, 16:19:05.400, 1556921945400
179, 0.00, 1076.84, 0.00, 0.00, 0.000, 0.000, 0.000, 16:19:05.400, 1556921945400
180, 0.00, 993.85, 0.00, 0.00, 0.000, 0.000, 0.000, 16:19:05.400, 1556921945400
181, 0.00, 988.71, 0.00, 0.00, 0.000, 0.000, 0.000, 16:19:05.414, 1556921945414
182, 0.00, 990.43, 0.00, 0.00, 0.000, 0.000, 0.000, 16:19:05.414, 1556921945414
183, 0.00, 987.91, 0.00, 0.00, 0.000, 0.000, 0.000, 16:19:05.430, 1556921945430
184, 0.00, 994.26, 0.00, 0.00, 0.000, 0.000, 0.000, 16:19:05.430, 1556921945430
185, 0.00, 963.37, 0.00, 0.00, 0.000, 0.000, 0.000, 16:19:05.431, 1556921945431
186, 0.00, 962.02, 0.00, 0.00, 0.000, 0.000, 0.000, 16:19:05.431, 1556921945431
187, 0.00, 949.50, 0.00, 0.00, 0.000, 0.000, 0.000, 16:19:05.444, 1556921945444
188, 0.00, 901.87, 0.00, 0.00, 0.000, 0.000, 0.000, 16:19:05.444, 1556921945444
189, 0.00, 849.70, 0.00, 0.00, 0.000, 0.000, 0.000, 16:19:05.460, 1556921945460
190, 0.00, 782.31, 0.00, 0.00, 0.000, 0.000, 0.000, 16:19:05.460, 1556921945460
191, 0.00, 684.80, 0.00, 0.00, 0.000, 0.000, 0.000, 16:19:05.461, 1556921945461
192, 0.00, 575.55, 0.00, 0.00, 0.000, 0.000, 0.000, 16:19:05.461, 1556921945461
193, 0.00, 524.68, 0.00, 0.00, 0.000, 0.000, 0.000, 16:19:05.474, 1556921945474
194, 0.00, 408.71, 0.00, 0.00, 0.000, 0.000, 0.000, 16:19:05.474, 1556921945474
195, 0.00, 230.95, 0.00, 0.00, 0.000, 0.000, 0.000, 16:19:05.489, 1556921945489
196, 0.00, 158.21, 0.00, 0.00, 0.000, 0.000, 0.000, 16:19:05.489, 1556921945489
197, 0.00, -51.86, 0.00, 0.00, 0.000, 0.000, 0.000, 16:19:05.491, 1556921945491
198, 0.00, -319.60, 0.00, 0.00, 0.000, 0.000, 0.000, 16:19:05.491, 1556921945491
199, 0.00, -655.94, 0.00, 0.00, 0.000, 0.000, 0.000, 16:19:05.504, 1556921945504
200, 0.00, -1098.80, 0.00, 0.00, 0.000, 0.000, 0.000, 16:19:05.504, 1556921945504
0, 0.00, -1648.30, 0.00, 0.00, 0.000, 0.000, 0.000, 16:19:05.505, 1556921945505
1, 0.00, -2208.73, 0.00, 0.00, 0.000, 0.000, 0.000, 16:19:05.519, 1556921945519
2, 0.00, -2686.23, 0.00, 0.00, 0.000, 0.000, 0.000, 16:19:05.519, 1556921945519
3, 0.00, -3012.13, 0.00, 0.00, 0.000, 0.000, 0.000, 16:19:05.534, 1556921945534
4, 0.00, -3161.08, 0.00, 0.00, 0.000, 0.000, 0.000, 16:19:05.534, 1556921945534
5, 0.00, -3159.23, 0.00, 0.00, 0.000, 0.000, 0.000, 16:19:05.535, 1556921945535
6, 0.00, -3027.37, 0.00, 0.00, 0.000, 0.000, 0.000, 16:19:05.535, 1556921945535
7, 0.00, -2832.76, 0.00, 0.00, 0.000, 0.000, 0.000, 16:19:05.549, 1556921945549
8, 0.00, -2553.20, 0.00, 0.00, 0.000, 0.000, 0.000, 16:19:05.549, 1556921945549
9, 0.00, -2257.32, 0.00, 0.00, 0.000, 0.000, 0.000, 16:19:05.565, 1556921945565
10, 0.00, -1958.15, 0.00, 0.00, 0.000, 0.000, 0.000, 16:19:05.565, 1556921945565
11, 0.00, -1697.84, 0.00, 0.00, 0.000, 0.000, 0.000, 16:19:05.566, 1556921945566
12, 0.00, -1474.16, 0.00, 0.00, 0.000, 0.000, 0.000, 16:19:05.566, 1556921945566
13, 0.00, -1301.48, 0.00, 0.00, 0.000, 0.000, 0.000, 16:19:05.579, 1556921945579
14, 0.00, -1160.14, 0.00, 0.00, 0.000, 0.000, 0.000, 16:19:05.579, 1556921945579
15, 0.00, -1043.38, 0.00, 0.00, 0.000, 0.000, 0.000, 16:19:05.595, 1556921945595
16, 0.00, -975.90, 0.00, 0.00, 0.000, 0.000, 0.000, 16:19:05.595, 1556921945595
17, 0.00, -909.76, 0.00, 0.00, 0.000, 0.000, 0.000, 16:19:05.596, 1556921945596
18, 0.00, -855.10, 0.00, 0.00, 0.000, 0.000, 0.000, 16:19:05.596, 1556921945596
19, 0.00, -796.30, 0.00, 0.00, 0.000, 0.000, 0.000, 16:19:05.609, 1556921945609
20, 0.00, -734.53, 0.00, 0.00, 0.000, 0.000, 0.000, 16:19:05.609, 1556921945609
21, 0.00, -695.34, 0.00, 0.00, 0.000, 0.000, 0.000, 16:19:05.625, 1556921945625
22, 0.00, -656.47, 0.00, 0.00, 0.000, 0.000, 0.000, 16:19:05.625, 1556921945625
23, 0.00, -628.14, 0.00, 0.00, 0.000, 0.000, 0.000, 16:19:05.640, 1556921945640
24, 0.00, -578.58, 0.00, 0.00, 0.000, 0.000, 0.000, 16:19:05.640, 1556921945640
25, 0.00, -531.22, 0.00, 0.00, 0.000, 0.000, 0.000, 16:19:05.642, 1556921945642
26, 0.00, -490.98, 0.00, 0.00, 0.000, 0.000, 0.000, 16:19:05.642, 1556921945642
27, 0.00, -437.86, 0.00, 0.00, 0.000, 0.000, 0.000, 16:19:05.656, 1556921945656
28, 0.00, -400.81, 0.00, 0.00, 0.000, 0.000, 0.000, 16:19:05.656, 1556921945656
29, 0.00, -362.58, 0.00, 0.00, 0.000, 0.000, 0.000, 16:19:05.658, 1556921945658
30, 0.00, -319.86, 0.00, 0.00, 0.000, 0.000, 0.000, 16:19:05.658, 1556921945658
31, 0.00, -272.05, 0.00, 0.00, 0.000, 0.000, 0.000, 16:19:05.669, 1556921945669
32, 0.00, -223.11, 0.00, 0.00, 0.000, 0.000, 0.000, 16:19:05.669, 1556921945669
33, 0.00, -182.39, 0.00, 0.00, 0.000, 0.000, 0.000, 16:19:05.684, 1556921945684
34, 0.00, -144.35, 0.00, 0.00, 0.000, 0.000, 0.000, 16:19:05.684, 1556921945684
35, 0.00, -114.70, 0.00, 0.00, 0.000, 0.000, 0.000, 16:19:05.685, 1556921945685
36, 0.00, -93.15, 0.00, 0.00, 0.000, 0.000, 0.000, 16:19:05.685, 1556921945685
37, 0.00, -67.08, 0.00, 0.00, 0.000, 0.000, 0.000, 16:19:05.700, 1556921945700
38, 0.00, -54.87, 0.00, 0.00, 0.000, 0.000, 0.000, 16:19:05.700, 1556921945700
39, 0.00, -43.18, 0.00, 0.00, 0.000, 0.000, 0.000, 16:19:05.715, 1556921945715
40, 0.00, -36.89, 0.00, 0.00, 0.000, 0.000, 0.000, 16:19:05.715, 1556921945715
41, 0.00, -12.23, 0.00, 0.00, 0.000, 0.000, 0.000, 16:19:05.717, 1556921945717
42, 0.00, -1.79, 0.00, 0.00, 0.000, 0.000, 0.000, 16:19:05.717, 1556921945717
43, 0.00, 12.65, 0.00, 0.00, 0.000, 0.000, 0.000, 16:19:05.729, 1556921945729
44, 0.00, 27.55, 0.00, 0.00, 0.000, 0.000, 0.000, 16:19:05.729, 1556921945729
45, 0.00, 55.86, 0.00, 0.00, 0.000, 0.000, 0.000, 16:19:05.744, 1556921945744
46, 0.00, 63.45, 0.00, 0.00, 0.000, 0.000, 0.000, 16:19:05.744, 1556921945744
47, 0.00, 100.87, 0.00, 0.00, 0.000, 0.000, 0.000, 16:19:05.747, 1556921945747
48, 0.00, 109.56, 0.00, 0.00, 0.000, 0.000, 0.000, 16:19:05.747, 1556921945747
49, 0.00, 108.93, 0.00, 0.00, 0.000, 0.000, 0.000, 16:19:05.759, 1556921945759
50, 0.00, 109.31, 0.00, 0.00, 0.000, 0.000, 0.000, 16:19:05.759, 1556921945759
51, 0.00, 110.54, 0.00, 0.00, 0.000, 0.000, 0.000, 16:19:05.775, 1556921945775
52, 0.00, 108.43, 0.00, 0.00, 0.000, 0.000, 0.000, 16:19:05.775, 1556921945775
53, 0.00, 109.43, 0.00, 0.00, 0.000, 0.000, 0.000, 16:19:05.778, 1556921945778
54, 0.00, 110.69, 0.00, 0.00, 0.000, 0.000, 0.000, 16:19:05.778, 1556921945778
55, 0.00, 126.96, 0.00, 0.00, 0.000, 0.000, 0.000, 16:19:05.790, 1556921945790
56, 0.00, 118.16, 0.00, 0.00, 0.000, 0.000, 0.000, 16:19:05.790, 1556921945790
57, 0.00, 126.01, 0.00, 0.00, 0.000, 0.000, 0.000, 16:19:05.806, 1556921945806
58, 0.00, 116.84, 0.00, 0.00, 0.000, 0.000, 0.000, 16:19:05.806, 1556921945806
59, 0.00, 100.12, 0.00, 0.00, 0.000, 0.000, 0.000, 16:19:05.809, 1556921945809
60, 0.00, 103.78, 0.00, 0.00, 0.000, 0.000, 0.000, 16:19:05.809, 1556921945809
61, 0.00, 94.27, 0.00, 0.00, 0.000, 0.000, 0.000, 16:19:05.820, 1556921945820
62, 0.00, 94.63, 0.00, 0.00, 0.000, 0.000, 0.000, 16:19:05.820, 1556921945820
63, 0.00, 83.53, 0.00, 0.00, 0.000, 0.000, 0.000, 16:19:05.834, 1556921945834
64, 0.00, 81.92, 0.00, 0.00, 0.000, 0.000, 0.000, 16:19:05.834, 1556921945834
65, 0.00, 55.61, 0.00, 0.00, 0.000, 0.000, 0.000, 16:19:05.835, 1556921945835
66, 0.00, 38.77, 0.00, 0.00, 0.000, 0.000, 0.000, 16:19:05.835, 1556921945835
67, 0.00, 21.88, 0.00, 0.00, 0.000, 0.000, 0.000, 16:19:05.849, 1556921945849
68, 0.00, 5.09, 0.00, 0.00, 0.000, 0.000, 0.000, 16:19:05.849, 1556921945849
69, 0.00, -15.78, 0.00, 0.00, 0.000, 0.000, 0.000, 16:19:05.864, 1556921945864
70, 0.00, -31.20, 0.00, 0.00, 0.000, 0.000, 0.000, 16:19:05.864, 1556921945864
71, 0.00, -49.53, 0.00, 0.00, 0.000, 0.000, 0.000, 16:19:05.865, 1556921945865
72, 0.00, -56.83, 0.00, 0.00, 0.000, 0.000, 0.000, 16:19:05.865, 1556921945865
73, 0.00, -64.92, 0.00, 0.00, 0.000, 0.000, 0.000, 16:19:05.879, 1556921945879
74, 0.00, -70.51, 0.00, 0.00, 0.000, 0.000, 0.000, 16:19:05.879, 1556921945879
75, 0.00, -74.82, 0.00, 0.00, 0.000, 0.000, 0.000, 16:19:05.894, 1556921945894
76, 0.00, -76.21, 0.00, 0.00, 0.000, 0.000, 0.000, 16:19:05.894, 1556921945894
77, 0.00, -72.24, 0.00, 0.00, 0.000, 0.000, 0.000, 16:19:05.895, 1556921945895
78, 0.00, -82.27, 0.00, 0.00, 0.000, 0.000, 0.000, 16:19:05.895, 1556921945895
79, 0.00, -82.80, 0.00, 0.00, 0.000, 0.000, 0.000, 16:19:05.911, 1556921945911
80, 0.00, -76.82, 0.00, 0.00, 0.000, 0.000, 0.000, 16:19:05.911, 1556921945911
81, 0.00, -87.25, 0.00, 0.00, 0.000, 0.000, 0.000, 16:19:05.925, 1556921945925
82, 0.00, -99.36, 0.00, 0.00, 0.000, 0.000, 0.000, 16:19:05.925, 1556921945925
83, 0.00, -110.79, 0.00, 0.00, 0.000, 0.000, 0.000, 16:19:05.927, 1556921945927
84, 0.00, -109.04, 0.00, 0.00, 0.000, 0.000, 0.000, 16:19:05.927, 1556921945927
85, 0.00, -110.24, 0.00, 0.00, 0.000, 0.000, 0.000, 16:19:05.955, 1556921945955
86, 0.00, -112.51, 0.00, 0.00, 0.000, 0.000, 0.000, 16:19:05.955, 1556921945955
87, 0.00, -128.65, 0.00, 0.00, 0.000, 0.000, 0.000, 16:19:05.957, 1556921945957
88, 0.00, -134.14, 0.00, 0.00, 0.000, 0.000, 0.000, 16:19:05.957, 1556921945957
89, 0.00, -139.23, 0.00, 0.00, 0.000, 0.000, 0.000, 16:19:05.957, 1556921945957
90, 0.00, -149.48, 0.00, 0.00, 0.000, 0.000, 0.000, 16:19:05.957, 1556921945957
91, 0.00, -168.34, 0.00, 0.00, 0.000, 0.000, 0.000, 16:19:05.970, 1556921945970
92, 0.00, -176.31, 0.00, 0.00, 0.000, 0.000, 0.000, 16:19:05.970, 1556921945970
93, 0.00, -181.18, 0.00, 0.00, 0.000, 0.000, 0.000, 16:19:05.994, 1556921945994
94, 0.00, -189.40, 0.00, 0.00, 0.000, 0.000, 0.000, 16:19:05.994, 1556921945994
95, 0.00, -189.81, 0.00, 0.00, 0.000, 0.000, 0.000, 16:19:05.995, 1556921945995
96, 0.00, -193.83, 0.00, 0.00, 0.000, 0.000, 0.000, 16:19:05.995, 1556921945995
97, 0.00, -194.33, 0.00, 0.00, 0.000, 0.000, 0.000, 16:19:06.000, 1556921946000
98, 0.00, -196.22, 0.00, 0.00, 0.000, 0.000, 0.000, 16:19:06.000, 1556921946000
99, 0.00, -198.41, 0.00, 0.00, 0.000, 0.000, 0.000, 16:19:06.014, 1556921946014
100, 0.00, -195.05, 0.00, 0.00, 0.000, 0.000, 0.000, 16:19:06.014, 1556921946014
101, 0.00, -193.97, 0.00, 0.00, 0.000, 0.000, 0.000, 16:19:06.016, 1556921946016
102, 0.00, -193.87, 0.00, 0.00, 0.000, 0.000, 0.000, 16:19:06.016, 1556921946016
103, 0.00, -186.13, 0.00, 0.00, 0.000, 0.000, 0.000, 16:19:06.030, 1556921946030
104, 0.00, -180.68, 0.00, 0.00, 0.000, 0.000, 0.000, 16:19:06.030, 1556921946030
105, 0.00, -169.93, 0.00, 0.00, 0.000, 0.000, 0.000, 16:19:06.047, 1556921946047
106, 0.00, -174.87, 0.00, 0.00, 0.000, 0.000, 0.000, 16:19:06.047, 1556921946047
107, 0.00, -176.26, 0.00, 0.00, 0.000, 0.000, 0.000, 16:19:06.049, 1556921946049
108, 0.00, -170.19, 0.00, 0.00, 0.000, 0.000, 0.000, 16:19:06.049, 1556921946049
109, 0.00, -174.62, 0.00, 0.00, 0.000, 0.000, 0.000, 16:19:06.060, 1556921946060
110, 0.00, -187.83, 0.00, 0.00, 0.000, 0.000, 0.000, 16:19:06.060, 1556921946060
111, 0.00, -186.95, 0.00, 0.00, 0.000, 0.000, 0.000, 16:19:06.078, 1556921946078
112, 0.00, -187.19, 0.00, 0.00, 0.000, 0.000, 0.000, 16:19:06.078, 1556921946078
113, 0.00, -198.94, 0.00, 0.00, 0.000, 0.000, 0.000, 16:19:06.082, 1556921946082
114, 0.00, -205.04, 0.00, 0.00, 0.000, 0.000, 0.000, 16:19:06.082, 1556921946082
115, 0.00, -212.91, 0.00, 0.00, 0.000, 0.000, 0.000, 16:19:06.090, 1556921946090
116, 0.00, -223.23, 0.00, 0.00, 0.000, 0.000, 0.000, 16:19:06.090, 1556921946090
117, 0.00, -216.57, 0.00, 0.00, 0.000, 0.000, 0.000, 16:19:06.109, 1556921946109
118, 0.00, -232.06, 0.00, 0.00, 0.000, 0.000, 0.000, 16:19:06.109, 1556921946109
119, 0.00, -234.94, 0.00, 0.00, 0.000, 0.000, 0.000, 16:19:06.115, 1556921946115
120, 0.00, -239.49, 0.00, 0.00, 0.000, 0.000, 0.000, 16:19:06.115, 1556921946115
121, 0.00, -231.04, 0.00, 0.00, 0.000, 0.000, 0.000, 16:19:06.128, 1556921946128
122, 0.00, -230.60, 0.00, 0.00, 0.000, 0.000, 0.000, 16:19:06.128, 1556921946128
123, 0.00, -226.66, 0.00, 0.00, 0.000, 0.000, 0.000, 16:19:06.134, 1556921946134
124, 0.00, -226.98, 0.00, 0.00, 0.000, 0.000, 0.000, 16:19:06.135, 1556921946135
125, 0.00, -220.14, 0.00, 0.00, 0.000, 0.000, 0.000, 16:19:06.137, 1556921946137
126, 0.00, -212.23, 0.00, 0.00, 0.000, 0.000, 0.000, 16:19:06.137, 1556921946137
127, 0.00, -207.20, 0.00, 0.00, 0.000, 0.000, 0.000, 16:19:06.150, 1556921946150
128, 0.00, -208.05, 0.00, 0.00, 0.000, 0.000, 0.000, 16:19:06.150, 1556921946150
129, 0.00, -204.49, 0.00, 0.00, 0.000, 0.000, 0.000, 16:19:06.164, 1556921946164
130, 0.00, -201.17, 0.00, 0.00, 0.000, 0.000, 0.000, 16:19:06.164, 1556921946164
131, 0.00, -197.73, 0.00, 0.00, 0.000, 0.000, 0.000, 16:19:06.165, 1556921946165
132, 0.00, -211.66, 0.00, 0.00, 0.000, 0.000, 0.000, 16:19:06.165, 1556921946165
133, 0.00, -202.99, 0.00, 0.00, 0.000, 0.000, 0.000, 16:19:06.180, 1556921946180
134, 0.00, -213.17, 0.00, 0.00, 0.000, 0.000, 0.000, 16:19:06.180, 1556921946180
135, 0.00, -212.33, 0.00, 0.00, 0.000, 0.000, 0.000, 16:19:06.195, 1556921946195
136, 0.00, -216.69, 0.00, 0.00, 0.000, 0.000, 0.000, 16:19:06.195, 1556921946195
137, 0.00, -218.71, 0.00, 0.00, 0.000, 0.000, 0.000, 16:19:06.196, 1556921946196
138, 0.00, -230.55, 0.00, 0.00, 0.000, 0.000, 0.000, 16:19:06.196, 1556921946196
139, 0.00, -238.37, 0.00, 0.00, 0.000, 0.000, 0.000, 16:19:06.210, 1556921946210
140, 0.00, -247.14, 0.00, 0.00, 0.000, 0.000, 0.000, 16:19:06.210, 1556921946210
141, 0.00, -242.78, 0.00, 0.00, 0.000, 0.000, 0.000, 16:19:06.225, 1556921946225
142, 0.00, -256.78, 0.00, 0.00, 0.000, 0.000, 0.000, 16:19:06.225, 1556921946225
143, 0.00, -251.03, 0.00, 0.00, 0.000, 0.000, 0.000, 16:19:06.228, 1556921946228
144, 0.00, -252.30, 0.00, 0.00, 0.000, 0.000, 0.000, 16:19:06.228, 1556921946228
145, 0.00, -252.23, 0.00, 0.00, 0.000, 0.000, 0.000, 16:19:06.239, 1556921946239
146, 0.00, -241.58, 0.00, 0.00, 0.000, 0.000, 0.000, 16:19:06.239, 1556921946239
147, 0.00, -217.69, 0.00, 0.00, 0.000, 0.000, 0.000, 16:19:06.263, 1556921946263
148, 0.00, -231.70, 0.00, 0.00, 0.000, 0.000, 0.000, 16:19:06.263, 1556921946263
149, 0.00, -237.75, 0.00, 0.00, 0.000, 0.000, 0.000, 16:19:06.267, 1556921946267
150, 0.00, -221.47, 0.00, 0.00, 0.000, 0.000, 0.000, 16:19:06.267, 1556921946267
151, 0.00, -216.73, 0.00, 0.00, 0.000, 0.000, 0.000, 16:19:06.269, 1556921946269
152, 0.00, -207.31, 0.00, 0.00, 0.000, 0.000, 0.000, 16:19:06.269, 1556921946269
153, 0.00, -200.93, 0.00, 0.00, 0.000, 0.000, 0.000, 16:19:06.285, 1556921946285
154, 0.00, -206.20, 0.00, 0.00, 0.000, 0.000, 0.000, 16:19:06.285, 1556921946285
155, 0.00, -196.43, 0.00, 0.00, 0.000, 0.000, 0.000, 16:19:06.286, 1556921946286
156, 0.00, -198.76, 0.00, 0.00, 0.000, 0.000, 0.000, 16:19:06.286, 1556921946286
157, 0.00, -204.88, 0.00, 0.00, 0.000, 0.000, 0.000, 16:19:06.300, 1556921946300
158, 0.00, -205.78, 0.00, 0.00, 0.000, 0.000, 0.000, 16:19:06.300, 1556921946300
159, 0.00, -205.37, 0.00, 0.00, 0.000, 0.000, 0.000, 16:19:06.316, 1556921946316
160, 0.00, -205.11, 0.00, 0.00, 0.000, 0.000, 0.000, 16:19:06.316, 1556921946316
161, 0.00, -199.20, 0.00, 0.00, 0.000, 0.000, 0.000, 16:19:06.319, 1556921946319
162, 0.00, -203.18, 0.00, 0.00, 0.000, 0.000, 0.000, 16:19:06.319, 1556921946319
163, 0.00, -195.93, 0.00, 0.00, 0.000, 0.000, 0.000, 16:19:06.330, 1556921946330
164, 0.00, -202.28, 0.00, 0.00, 0.000, 0.000, 0.000, 16:19:06.330, 1556921946330
165, 0.00, -203.89, 0.00, 0.00, 0.000, 0.000, 0.000, 16:19:06.345, 1556921946345
166, 0.00, -206.53, 0.00, 0.00, 0.000, 0.000, 0.000, 16:19:06.345, 1556921946345
167, 0.00, -207.25, 0.00, 0.00, 0.000, 0.000, 0.000, 16:19:06.346, 1556921946346
168, 0.00, -199.84, 0.00, 0.00, 0.000, 0.000, 0.000, 16:19:06.346, 1556921946346
169, 0.00, -197.25, 0.00, 0.00, 0.000, 0.000, 0.000, 16:19:06.359, 1556921946359
170, 0.00, -193.58, 0.00, 0.00, 0.000, 0.000, 0.000, 16:19:06.359, 1556921946359
171, 0.00, -188.23, 0.00, 0.00, 0.000, 0.000, 0.000, 16:19:06.375, 1556921946375
172, 0.00, -181.27, 0.00, 0.00, 0.000, 0.000, 0.000, 16:19:06.375, 1556921946375
173, 0.00, -173.54, 0.00, 0.00, 0.000, 0.000, 0.000, 16:19:06.375, 1556921946375
174, 0.00, -167.33, 0.00, 0.00, 0.000, 0.000, 0.000, 16:19:06.375, 1556921946375
175, 0.00, -158.78, 0.00, 0.00, 0.000, 0.000, 0.000, 16:19:06.389, 1556921946389
176, 0.00, -148.40, 0.00, 0.00, 0.000, 0.000, 0.000, 16:19:06.389, 1556921946389
177, 0.00, -147.29, 0.00, 0.00, 0.000, 0.000, 0.000, 16:19:06.405, 1556921946405
178, 0.00, -141.31, 0.00, 0.00, 0.000, 0.000, 0.000, 16:19:06.405, 1556921946405
179, 0.00, -138.69, 0.00, 0.00, 0.000, 0.000, 0.000, 16:19:06.406, 1556921946406
180, 0.00, -129.25, 0.00, 0.00, 0.000, 0.000, 0.000, 16:19:06.406, 1556921946406
181, 0.00, -126.67, 0.00, 0.00, 0.000, 0.000, 0.000, 16:19:06.419, 1556921946419
182, 0.00, -126.52, 0.00, 0.00, 0.000, 0.000, 0.000, 16:19:06.419, 1556921946419
183, 0.00, -127.38, 0.00, 0.00, 0.000, 0.000, 0.000, 16:19:06.436, 1556921946436
184, 0.00, -118.79, 0.00, 0.00, 0.000, 0.000, 0.000, 16:19:06.436, 1556921946436
185, 0.00, -121.09, 0.00, 0.00, 0.000, 0.000, 0.000, 16:19:06.440, 1556921946440
186, 0.00, -116.09, 0.00, 0.00, 0.000, 0.000, 0.000, 16:19:06.440, 1556921946440
187, 0.00, -115.26, 0.00, 0.00, 0.000, 0.000, 0.000, 16:19:06.451, 1556921946451
188, 0.00, -113.96, 0.00, 0.00, 0.000, 0.000, 0.000, 16:19:06.451, 1556921946451
189, 0.00, -109.64, 0.00, 0.00, 0.000, 0.000, 0.000, 16:19:06.466, 1556921946466
190, 0.00, -109.32, 0.00, 0.00, 0.000, 0.000, 0.000, 16:19:06.466, 1556921946466
191, 0.00, -99.71, 0.00, 0.00, 0.000, 0.000, 0.000, 16:19:06.469, 1556921946469
192, 0.00, -97.36, 0.00, 0.00, 0.000, 0.000, 0.000, 16:19:06.469, 1556921946469
193, 0.00, -98.01, 0.00, 0.00, 0.000, 0.000, 0.000, 16:19:06.480, 1556921946480
194, 0.00, -87.50, 0.00, 0.00, 0.000, 0.000, 0.000, 16:19:06.480, 1556921946480
195, 0.00, -86.73, 0.00, 0.00, 0.000, 0.000, 0.000, 16:19:06.496, 1556921946496
196, 0.00, -83.37, 0.00, 0.00, 0.000, 0.000, 0.000, 16:19:06.496, 1556921946496
197, 0.00, -80.82, 0.00, 0.00, 0.000, 0.000, 0.000, 16:19:06.498, 1556921946498
198, 0.00, -81.78, 0.00, 0.00, 0.000, 0.000, 0.000, 16:19:06.498, 1556921946498
199, 0.00, -86.06, 0.00, 0.00, 0.000, 0.000, 0.000, 16:19:06.510, 1556921946510
200, 0.00, -93.91, 0.00, 0.00, 0.000, 0.000, 0.000, 16:19:06.510, 1556921946510
0, 0.00, -95.90, 0.00, 0.00, 0.000, 0.000, 0.000, 16:19:06.511, 1556921946511
1, 0.00, -90.85, 0.00, 0.00, 0.000, 0.000, 0.000, 16:19:06.524, 1556921946524
2, 0.00, -83.44, 0.00, 0.00, 0.000, 0.000, 0.000, 16:19:06.524, 1556921946524
3, 0.00, -92.77, 0.00, 0.00, 0.000, 0.000, 0.000, 16:19:06.540, 1556921946540
4, 0.00, -86.33, 0.00, 0.00, 0.000, 0.000, 0.000, 16:19:06.540, 1556921946540
5, 0.00, -81.30, 0.00, 0.00, 0.000, 0.000, 0.000, 16:19:06.541, 1556921946541
6, 0.00, -82.23, 0.00, 0.00, 0.000, 0.000, 0.000, 16:19:06.541, 1556921946541
7, 0.00, -82.98, 0.00, 0.00, 0.000, 0.000, 0.000, 16:19:06.554, 1556921946554
8, 0.00, -81.81, 0.00, 0.00, 0.000, 0.000, 0.000, 16:19:06.554, 1556921946554
9, 0.00, -79.04, 0.00, 0.00, 0.000, 0.000, 0.000, 16:19:06.570, 1556921946570
10, 0.00, -68.81, 0.00, 0.00, 0.000, 0.000, 0.000, 16:19:06.570, 1556921946570
11, 0.00, -63.18, 0.00, 0.00, 0.000, 0.000, 0.000, 16:19:06.571, 1556921946571
12, 0.00, -60.57, 0.00, 0.00, 0.000, 0.000, 0.000, 16:19:06.571, 1556921946571
13, 0.00, -55.66, 0.00, 0.00, 0.000, 0.000, 0.000, 16:19:06.584, 1556921946584
14, 0.00, -47.80, 0.00, 0.00, 0.000, 0.000, 0.000, 16:19:06.584, 1556921946584
15, 0.00, -38.87, 0.00, 0.00, 0.000, 0.000, 0.000, 16:19:06.599, 1556921946599
16, 0.00, -30.82, 0.00, 0.00, 0.000, 0.000, 0.000, 16:19:06.599, 1556921946599
17, 0.00, -25.59, 0.00, 0.00, 0.000, 0.000, 0.000, 16:19:06.600, 1556921946600
18, 0.00, -16.17, 0.00, 0.00, 0.000, 0.000, 0.000, 16:19:06.600, 1556921946600
19, 0.00, -8.70, 0.00, 0.00, 0.000, 0.000, 0.000, 16:19:06.614, 1556921946614
20, 0.00, -4.53, 0.00, 0.00, 0.000, 0.000, 0.000, 16:19:06.614, 1556921946614
21, 0.00, 2.26, 0.00, 0.00, 0.000, 0.000, 0.000, 16:19:06.630, 1556921946630
22, 0.00, 1.31, 0.00, 0.00, 0.000, 0.000, 0.000, 16:19:06.630, 1556921946630
23, 0.00, 11.11, 0.00, 0.00, 0.000, 0.000, 0.000, 16:19:06.631, 1556921946631
24, 0.00, 16.08, 0.00, 0.00, 0.000, 0.000, 0.000, 16:19:06.631, 1556921946631
25, 0.00, 18.55, 0.00, 0.00, 0.000, 0.000, 0.000, 16:19:06.644, 1556921946644
26, 0.00, 26.67, 0.00, 0.00, 0.000, 0.000, 0.000, 16:19:06.644, 1556921946644
27, 0.00, 28.98, 0.00, 0.00, 0.000, 0.000, 0.000, 16:19:06.660, 1556921946660
28, 0.00, 28.40, 0.00, 0.00, 0.000, 0.000, 0.000, 16:19:06.660, 1556921946660
29, 0.00, 33.21, 0.00, 0.00, 0.000, 0.000, 0.000, 16:19:06.662, 1556921946662
30, 0.00, 37.80, 0.00, 0.00, 0.000, 0.000, 0.000, 16:19:06.662, 1556921946662
31, 0.00, 41.05, 0.00, 0.00, 0.000, 0.000, 0.000, 16:19:06.674, 1556921946674
32, 0.00, 49.07, 0.00, 0.00, 0.000, 0.000, 0.000, 16:19:06.674, 1556921946674
33, 0.00, 49.09, 0.00, 0.00, 0.000, 0.000, 0.000, 16:19:06.689, 1556921946689
34, 0.00, 54.43, 0.00, 0.00, 0.000, 0.000, 0.000, 16:19:06.689, 1556921946689
35, 0.00, 58.58, 0.00, 0.00, 0.000, 0.000, 0.000, 16:19:06.691, 1556921946691
36, 0.00, 66.30, 0.00, 0.00, 0.000, 0.000, 0.000, 16:19:06.691, 1556921946691
37, 0.00, 65.74, 0.00, 0.00, 0.000, 0.000, 0.000, 16:19:06.707, 1556921946707
38, 0.00, 70.80, 0.00, 0.00, 0.000, 0.000, 0.000, 16:19:06.707, 1556921946707
39, 0.00, 73.00, 0.00, 0.00, 0.000, 0.000, 0.000, 16:19:06.720, 1556921946720
40, 0.00, 69.73, 0.00, 0.00, 0.000, 0.000, 0.000, 16:19:06.720, 1556921946720
41, 0.00, 74.33, 0.00, 0.00, 0.000, 0.000, 0.000, 16:19:06.723, 1556921946723
42, 0.00, 73.24, 0.00, 0.00, 0.000, 0.000, 0.000, 16:19:06.723, 1556921946723
43, 0.00, 69.38, 0.00, 0.00, 0.000, 0.000, 0.000, 16:19:06.734, 1556921946734
44, 0.00, 70.88, 0.00, 0.00, 0.000, 0.000, 0.000, 16:19:06.734, 1556921946734
45, 0.00, 74.35, 0.00, 0.00, 0.000, 0.000, 0.000, 16:19:06.749, 1556921946749
46, 0.00, 77.79, 0.00, 0.00, 0.000, 0.000, 0.000, 16:19:06.749, 1556921946749
47, 0.00, 78.86, 0.00, 0.00, 0.000, 0.000, 0.000, 16:19:06.751, 1556921946751
48, 0.00, 80.03, 0.00, 0.00, 0.000, 0.000, 0.000, 16:19:06.751, 1556921946751
49, 0.00, 82.52, 0.00, 0.00, 0.000, 0.000, 0.000, 16:19:06.764, 1556921946764
50, 0.00, 82.25, 0.00, 0.00, 0.000, 0.000, 0.000, 16:19:06.764, 1556921946764
51, 0.00, 84.22, 0.00, 0.00, 0.000, 0.000, 0.000, 16:19:06.779, 1556921946779
52, 0.00, 93.50, 0.00, 0.00, 0.000, 0.000, 0.000, 16:19:06.779, 1556921946779
53, 0.00, 90.63, 0.00, 0.00, 0.000, 0.000, 0.000, 16:19:06.780, 1556921946780
54, 0.00, 93.80, 0.00, 0.00, 0.000, 0.000, 0.000, 16:19:06.780, 1556921946780
55, 0.00, 97.73, 0.00, 0.00, 0.000, 0.000, 0.000, 16:19:06.794, 1556921946794
56, 0.00, 96.96, 0.00, 0.00, 0.000, 0.000, 0.000, 16:19:06.794, 1556921946794
57, 0.00, 105.66, 0.00, 0.00, 0.000, 0.000, 0.000, 16:19:06.809, 1556921946809
58, 0.00, 105.04, 0.00, 0.00, 0.000, 0.000, 0.000, 16:19:06.809, 1556921946809
59, 0.00, 108.93, 0.00, 0.00, 0.000, 0.000, 0.000, 16:19:06.810, 1556921946810
60, 0.00, 107.25, 0.00, 0.00, 0.000, 0.000, 0.000, 16:19:06.810, 1556921946810
61, 0.00, 102.99, 0.00, 0.00, 0.000, 0.000, 0.000, 16:19:06.828, 1556921946828
62, 0.00, 97.74, 0.00, 0.00, 0.000, 0.000, 0.000, 16:19:06.828, 1556921946828
63, 0.00, 86.03, 0.00, 0.00, 0.000, 0.000, 0.000, 16:19:06.840, 1556921946840
64, 0.00, 80.93, 0.00, 0.00, 0.000, 0.000, 0.000, 16:19:06.840, 1556921946840
65, 0.00, 80.02, 0.00, 0.00, 0.000, 0.000, 0.000, 16:19:06.841, 1556921946841
66, 0.00, 71.85, 0.00, 0.00, 0.000, 0.000, 0.000, 16:19:06.841, 1556921946841
67, 0.00, 92.53, 0.00, 0.00, 0.000, 0.000, 0.000, 16:19:06.858, 1556921946858
68, 0.00, 61.68, 0.00, 0.00, 0.000, 0.000, 0.000, 16:19:06.858, 1556921946858
69, 0.00, 62.77, 0.00, 0.00, 0.000, 0.000, 0.000, 16:19:06.870, 1556921946870
70, 0.00, 69.89, 0.00, 0.00, 0.000, 0.000, 0.000, 16:19:06.870, 1556921946870
71, 0.00, 78.09, 0.00, 0.00, 0.000, 0.000, 0.000, 16:19:06.873, 1556921946873
72, 0.00, 82.86, 0.00, 0.00, 0.000, 0.000, 0.000, 16:19:06.873, 1556921946873
73, 0.00, 84.12, 0.00, 0.00, 0.000, 0.000, 0.000, 16:19:06.884, 1556921946884
74, 0.00, 82.03, 0.00, 0.00, 0.000, 0.000, 0.000, 16:19:06.884, 1556921946884
75, 0.00, 85.03, 0.00, 0.00, 0.000, 0.000, 0.000, 16:19:06.900, 1556921946900
76, 0.00, 79.77, 0.00, 0.00, 0.000, 0.000, 0.000, 16:19:06.900, 1556921946900
77, 0.00, 79.08, 0.00, 0.00, 0.000, 0.000, 0.000, 16:19:06.902, 1556921946902
78, 0.00, 69.74, 0.00, 0.00, 0.000, 0.000, 0.000, 16:19:06.902, 1556921946902
79, 0.00, 67.23, 0.00, 0.00, 0.000, 0.000, 0.000, 16:19:06.914, 1556921946914
80, 0.00, 63.91, 0.00, 0.00, 0.000, 0.000, 0.000, 16:19:06.914, 1556921946914
81, 0.00, 52.16, 0.00, 0.00, 0.000, 0.000, 0.000, 16:19:06.930, 1556921946930
82, 0.00, 39.73, 0.00, 0.00, 0.000, 0.000, 0.000, 16:19:06.930, 1556921946930
83, 0.00, 32.74, 0.00, 0.00, 0.000, 0.000, 0.000, 16:19:06.934, 1556921946934
84, 0.00, 24.70, 0.00, 0.00, 0.000, 0.000, 0.000, 16:19:06.934, 1556921946934
85, 0.00, 17.14, 0.00, 0.00, 0.000, 0.000, 0.000, 16:19:06.945, 1556921946945
86, 0.00, 12.22, 0.00, 0.00, 0.000, 0.000, 0.000, 16:19:06.945, 1556921946945
87, 0.00, 5.47, 0.00, 0.00, 0.000, 0.000, 0.000, 16:19:06.960, 1556921946960
88, 0.00, 2.80, 0.00, 0.00, 0.000, 0.000, 0.000, 16:19:06.960, 1556921946960
89, 0.00, 8.70, 0.00, 0.00, 0.000, 0.000, 0.000, 16:19:06.963, 1556921946963
90, 0.00, 11.68, 0.00, 0.00, 0.000, 0.000, 0.000, 16:19:06.963, 1556921946963
91, 0.00, 5.86, 0.00, 0.00, 0.000, 0.000, 0.000, 16:19:06.974, 1556921946974
92, 0.00, 12.69, 0.00, 0.00, 0.000, 0.000, 0.000, 16:19:06.974, 1556921946974
93, 0.00, 17.70, 0.00, 0.00, 0.000, 0.000, 0.000, 16:19:06.990, 1556921946990
94, 0.00, 13.62, 0.00, 0.00, 0.000, 0.000, 0.000, 16:19:06.990, 1556921946990
95, 0.00, 13.05, 0.00, 0.00, 0.000, 0.000, 0.000, 16:19:06.994, 1556921946994
96, 0.00, 11.46, 0.00, 0.00, 0.000, 0.000, 0.000, 16:19:06.994, 1556921946994
97, 0.00, 19.43, 0.00, 0.00, 0.000, 0.000, 0.000, 16:19:07.004, 1556921947004
98, 0.00, 19.17, 0.00, 0.00, 0.000, 0.000, 0.000, 16:19:07.004, 1556921947004
99, 0.00, 12.15, 0.00, 0.00, 0.000, 0.000, 0.000, 16:19:07.019, 1556921947019
100, 0.00, 14.71, 0.00, 0.00, 0.000, 0.000, 0.000, 16:19:07.019, 1556921947019
101, 0.00, 13.21, 0.00, 0.00, 0.000, 0.000, 0.000, 16:19:07.020, 1556921947020
102, 0.00, 9.13, 0.00, 0.00, 0.000, 0.000, 0.000, 16:19:07.020, 1556921947020
103, 0.00, 7.34, 0.00, 0.00, 0.000, 0.000, 0.000, 16:19:07.034, 1556921947034
104, 0.00, -6.04, 0.00, 0.00, 0.000, 0.000, 0.000, 16:19:07.034, 1556921947034
105, 0.00, -6.29, 0.00, 0.00, 0.000, 0.000, 0.000, 16:19:07.051, 1556921947051
106, 0.00, -0.91, 0.00, 0.00, 0.000, 0.000, 0.000, 16:19:07.051, 1556921947051
107, 0.00, -0.66, 0.00, 0.00, 0.000, 0.000, 0.000, 16:19:07.053, 1556921947053
108, 0.00, -3.81, 0.00, 0.00, 0.000, 0.000, 0.000, 16:19:07.053, 1556921947053
109, 0.00, -0.31, 0.00, 0.00, 0.000, 0.000, 0.000, 16:19:07.065, 1556921947065
110, 0.00, -2.32, 0.00, 0.00, 0.000, 0.000, 0.000, 16:19:07.065, 1556921947065
111, 0.00, 1.18, 0.00, 0.00, 0.000, 0.000, 0.000, 16:19:07.082, 1556921947082
112, 0.00, 5.76, 0.00, 0.00, 0.000, 0.000, 0.000, 16:19:07.082, 1556921947082
113, 0.00, 6.40, 0.00, 0.00, 0.000, 0.000, 0.000, 16:19:07.083, 1556921947083
114, 0.00, 12.80, 0.00, 0.00, 0.000, 0.000, 0.000, 16:19:07.083, 1556921947083
115, 0.00, 13.16, 0.00, 0.00, 0.000, 0.000, 0.000, 16:19:07.094, 1556921947094
116, 0.00, 15.21, 0.00, 0.00, 0.000, 0.000, 0.000, 16:19:07.094, 1556921947094
117, 0.00, 17.48, 0.00, 0.00, 0.000, 0.000, 0.000, 16:19:07.110, 1556921947110
118, 0.00, 18.72, 0.00, 0.00, 0.000, 0.000, 0.000, 16:19:07.110, 1556921947110
119, 0.00, 23.14, 0.00, 0.00, 0.000, 0.000, 0.000, 16:19:07.111, 1556921947111
120, 0.00, 20.78, 0.00, 0.00, 0.000, 0.000, 0.000, 16:19:07.111, 1556921947111
121, 0.00, 21.87, 0.00, 0.00, 0.000, 0.000, 0.000, 16:19:07.124, 1556921947124
122, 0.00, 20.29, 0.00, 0.00, 0.000, 0.000, 0.000, 16:19:07.124, 1556921947124
123, 0.00, 24.10, 0.00, 0.00, 0.000, 0.000, 0.000, 16:19:07.142, 1556921947142
124, 0.00, 22.65, 0.00, 0.00, 0.000, 0.000, 0.000, 16:19:07.142, 1556921947142
125, 0.00, 24.06, 0.00, 0.00, 0.000, 0.000, 0.000, 16:19:07.143, 1556921947143
126, 0.00, 25.86, 0.00, 0.00, 0.000, 0.000, 0.000, 16:19:07.143, 1556921947143
127, 0.00, 23.43, 0.00, 0.00, 0.000, 0.000, 0.000, 16:19:07.154, 1556921947154
128, 0.00, 23.37, 0.00, 0.00, 0.000, 0.000, 0.000, 16:19:07.154, 1556921947154
129, 0.00, 26.74, 0.00, 0.00, 0.000, 0.000, 0.000, 16:19:07.170, 1556921947170
130, 0.00, 31.08, 0.00, 0.00, 0.000, 0.000, 0.000, 16:19:07.170, 1556921947170
131, 0.00, 27.98, 0.00, 0.00, 0.000, 0.000, 0.000, 16:19:07.173, 1556921947173
132, 0.00, 30.46, 0.00, 0.00, 0.000, 0.000, 0.000, 16:19:07.173, 1556921947173
133, 0.00, 41.15, 0.00, 0.00, 0.000, 0.000, 0.000, 16:19:07.184, 1556921947184
134, 0.00, 46.13, 0.00, 0.00, 0.000, 0.000, 0.000, 16:19:07.184, 1556921947184
135, 0.00, 46.92, 0.00, 0.00, 0.000, 0.000, 0.000, 16:19:07.216, 1556921947216
136, 0.00, 56.99, 0.00, 0.00, 0.000, 0.000, 0.000, 16:19:07.216, 1556921947216
137, 0.00, 65.67, 0.00, 0.00, 0.000, 0.000, 0.000, 16:19:07.217, 1556921947217
138, 0.00, 67.00, 0.00, 0.00, 0.000, 0.000, 0.000, 16:19:07.217, 1556921947217
139, 0.00, 71.14, 0.00, 0.00, 0.000, 0.000, 0.000, 16:19:07.218, 1556921947218
140, 0.00, 74.41, 0.00, 0.00, 0.000, 0.000, 0.000, 16:19:07.218, 1556921947218
141, 0.00, 80.18, 0.00, 0.00, 0.000, 0.000, 0.000, 16:19:07.219, 1556921947219
142, 0.00, 79.41, 0.00, 0.00, 0.000, 0.000, 0.000, 16:19:07.219, 1556921947219
143, 0.00, 83.76, 0.00, 0.00, 0.000, 0.000, 0.000, 16:19:07.232, 1556921947232
144, 0.00, 77.11, 0.00, 0.00, 0.000, 0.000, 0.000, 16:19:07.232, 1556921947232
145, 0.00, 74.43, 0.00, 0.00, 0.000, 0.000, 0.000, 16:19:07.244, 1556921947244
146, 0.00, 69.54, 0.00, 0.00, 0.000, 0.000, 0.000, 16:19:07.244, 1556921947244
147, 0.00, 62.48, 0.00, 0.00, 0.000, 0.000, 0.000, 16:19:07.260, 1556921947260
148, 0.00, 61.88, 0.00, 0.00, 0.000, 0.000, 0.000, 16:19:07.260, 1556921947260
149, 0.00, 59.93, 0.00, 0.00, 0.000, 0.000, 0.000, 16:19:07.261, 1556921947261
150, 0.00, 60.44, 0.00, 0.00, 0.000, 0.000, 0.000, 16:19:07.261, 1556921947261
151, 0.00, 51.97, 0.00, 0.00, 0.000, 0.000, 0.000, 16:19:07.274, 1556921947274
152, 0.00, 55.35, 0.00, 0.00, 0.000, 0.000, 0.000, 16:19:07.274, 1556921947274
153, 0.00, 56.18, 0.00, 0.00, 0.000, 0.000, 0.000, 16:19:07.290, 1556921947290
154, 0.00, 51.98, 0.00, 0.00, 0.000, 0.000, 0.000, 16:19:07.290, 1556921947290
155, 0.00, 45.87, 0.00, 0.00, 0.000, 0.000, 0.000, 16:19:07.305, 1556921947305
156, 0.00, 54.02, 0.00, 0.00, 0.000, 0.000, 0.000, 16:19:07.305, 1556921947305
157, 0.00, 58.45, 0.00, 0.00, 0.000, 0.000, 0.000, 16:19:07.306, 1556921947306
158, 0.00, 61.40, 0.00, 0.00, 0.000, 0.000, 0.000, 16:19:07.306, 1556921947306
159, 0.00, 64.58, 0.00, 0.00, 0.000, 0.000, 0.000, 16:19:07.320, 1556921947320
160, 0.00, 64.72, 0.00, 0.00, 0.000, 0.000, 0.000, 16:19:07.320, 1556921947320
161, 0.00, 68.97, 0.00, 0.00, 0.000, 0.000, 0.000, 16:19:07.321, 1556921947321
162, 0.00, 71.05, 0.00, 0.00, 0.000, 0.000, 0.000, 16:19:07.321, 1556921947321
163, 0.00, 66.72, 0.00, 0.00, 0.000, 0.000, 0.000, 16:19:07.334, 1556921947334
164, 0.00, 65.85, 0.00, 0.00, 0.000, 0.000, 0.000, 16:19:07.334, 1556921947334
165, 0.00, 61.16, 0.00, 0.00, 0.000, 0.000, 0.000, 16:19:07.350, 1556921947350
166, 0.00, 62.94, 0.00, 0.00, 0.000, 0.000, 0.000, 16:19:07.350, 1556921947350
167, 0.00, 51.65, 0.00, 0.00, 0.000, 0.000, 0.000, 16:19:07.351, 1556921947351
168, 0.00, 50.41, 0.00, 0.00, 0.000, 0.000, 0.000, 16:19:07.351, 1556921947351
169, 0.00, 44.63, 0.00, 0.00, 0.000, 0.000, 0.000, 16:19:07.364, 1556921947364
170, 0.00, 41.12, 0.00, 0.00, 0.000, 0.000, 0.000, 16:19:07.364, 1556921947364
171, 0.00, 36.68, 0.00, 0.00, 0.000, 0.000, 0.000, 16:19:07.379, 1556921947379
172, 0.00, 30.83, 0.00, 0.00, 0.000, 0.000, 0.000, 16:19:07.379, 1556921947379
173, 0.00, 30.35, 0.00, 0.00, 0.000, 0.000, 0.000, 16:19:07.380, 1556921947380
174, 0.00, 36.98, 0.00, 0.00, 0.000, 0.000, 0.000, 16:19:07.380, 1556921947380
175, 0.00, 31.88, 0.00, 0.00, 0.000, 0.000, 0.000, 16:19:07.410, 1556921947410
176, 0.00, 31.82, 0.00, 0.00, 0.000, 0.000, 0.000, 16:19:07.410, 1556921947410
177, 0.00, 30.87, 0.00, 0.00, 0.000, 0.000, 0.000, 16:19:07.411, 1556921947411
178, 0.00, 30.19, 0.00, 0.00, 0.000, 0.000, 0.000, 16:19:07.411, 1556921947411
179, 0.00, 34.68, 0.00, 0.00, 0.000, 0.000, 0.000, 16:19:07.412, 1556921947412
180, 0.00, 30.64, 0.00, 0.00, 0.000, 0.000, 0.000, 16:19:07.412, 1556921947412
181, 0.00, 27.86, 0.00, 0.00, 0.000, 0.000, 0.000, 16:19:07.424, 1556921947424
182, 0.00, 33.78, 0.00, 0.00, 0.000, 0.000, 0.000, 16:19:07.424, 1556921947424
183, 0.00, 22.01, 0.00, 0.00, 0.000, 0.000, 0.000, 16:19:07.439, 1556921947439
184, 0.00, 23.07, 0.00, 0.00, 0.000, 0.000, 0.000, 16:19:07.439, 1556921947439
185, 0.00, 22.98, 0.00, 0.00, 0.000, 0.000, 0.000, 16:19:07.441, 1556921947441
186, 0.00, 21.58, 0.00, 0.00, 0.000, 0.000, 0.000, 16:19:07.441, 1556921947441
187, 0.00, 10.12, 0.00, 0.00, 0.000, 0.000, 0.000, 16:19:07.454, 1556921947454
188, 0.00, 11.75, 0.00, 0.00, 0.000, 0.000, 0.000, 16:19:07.454, 1556921947454
189, 0.00, 8.39, 0.00, 0.00, 0.000, 0.000, 0.000, 16:19:07.469, 1556921947469
190, 0.00, 3.38, 0.00, 0.00, 0.000, 0.000, 0.000, 16:19:07.469, 1556921947469
191, 0.00, 1.11, 0.00, 0.00, 0.000, 0.000, 0.000, 16:19:07.470, 1556921947470
192, 0.00, -5.97, 0.00, 0.00, 0.000, 0.000, 0.000, 16:19:07.470, 1556921947470
193, 0.00, -4.63, 0.00, 0.00, 0.000, 0.000, 0.000, 16:19:07.484, 1556921947484
194, 0.00, -7.69, 0.00, 0.00, 0.000, 0.000, 0.000, 16:19:07.484, 1556921947484
195, 0.00, -6.76, 0.00, 0.00, 0.000, 0.000, 0.000, 16:19:07.499, 1556921947499
196, 0.00, -5.56, 0.00, 0.00, 0.000, 0.000, 0.000, 16:19:07.499, 1556921947499
197, 0.00, -2.69, 0.00, 0.00, 0.000, 0.000, 0.000, 16:19:07.500, 1556921947500
198, 0.00, 0.18, 0.00, 0.00, 0.000, 0.000, 0.000, 16:19:07.500, 1556921947500
199, 0.00, 4.79, 0.00, 0.00, 0.000, 0.000, 0.000, 16:19:07.514, 1556921947514
200, 0.00, 9.42, 0.00, 0.00, 0.000, 0.000, 0.000, 16:19:07.514, 1556921947514
0, 0.00, 10.46, 0.00, 0.00, 0.000, 0.000, 0.000, 16:19:07.515, 1556921947515
1, 0.00, 17.36, 0.00, 0.00, 0.000, 0.000, 0.000, 16:19:07.529, 1556921947529
2, 0.00, 27.51, 0.00, 0.00, 0.000, 0.000, 0.000, 16:19:07.529, 1556921947529
3, 0.00, 30.56, 0.00, 0.00, 0.000, 0.000, 0.000, 16:19:07.545, 1556921947545
4, 0.00, 30.35, 0.00, 0.00, 0.000, 0.000, 0.000, 16:19:07.545, 1556921947545
5, 0.00, 34.40, 0.00, 0.00, 0.000, 0.000, 0.000, 16:19:07.546, 1556921947546
6, 0.00, 38.51, 0.00, 0.00, 0.000, 0.000, 0.000, 16:19:07.546, 1556921947546
7, 0.00, 44.47, 0.00, 0.00, 0.000, 0.000, 0.000, 16:19:07.559, 1556921947559
8, 0.00, 47.84, 0.00, 0.00, 0.000, 0.000, 0.000, 16:19:07.559, 1556921947559
9, 0.00, 43.21, 0.00, 0.00, 0.000, 0.000, 0.000, 16:19:07.575, 1556921947575
10, 0.00, 42.17, 0.00, 0.00, 0.000, 0.000, 0.000, 16:19:07.575, 1556921947575
11, 0.00, 40.74, 0.00, 0.00, 0.000, 0.000, 0.000, 16:19:07.575, 1556921947575
12, 0.00, 36.50, 0.00, 0.00, 0.000, 0.000, 0.000, 16:19:07.575, 1556921947575
13, 0.00, 30.14, 0.00, 0.00, 0.000, 0.000, 0.000, 16:19:07.589, 1556921947589
14, 0.00, 31.25, 0.00, 0.00, 0.000, 0.000, 0.000, 16:19:07.589, 1556921947589
15, 0.00, 24.65, 0.00, 0.00, 0.000, 0.000, 0.000, 16:19:07.621, 1556921947621
16, 0.00, 20.68, 0.00, 0.00, 0.000, 0.000, 0.000, 16:19:07.621, 1556921947621
17, 0.00, 28.81, 0.00, 0.00, 0.000, 0.000, 0.000, 16:19:07.623, 1556921947623
18, 0.00, 25.20, 0.00, 0.00, 0.000, 0.000, 0.000, 16:19:07.623, 1556921947623
19, 0.00, 24.79, 0.00, 0.00, 0.000, 0.000, 0.000, 16:19:07.624, 1556921947624
20, 0.00, 23.62, 0.00, 0.00, 0.000, 0.000, 0.000, 16:19:07.624, 1556921947624
21, 0.00, 28.83, 0.00, 0.00, 0.000, 0.000, 0.000, 16:19:07.625, 1556921947625
22, 0.00, 35.12, 0.00, 0.00, 0.000, 0.000, 0.000, 16:19:07.625, 1556921947625
23, 0.00, 33.40, 0.00, 0.00, 0.000, 0.000, 0.000, 16:19:07.634, 1556921947634
24, 0.00, 33.06, 0.00, 0.00, 0.000, 0.000, 0.000, 16:19:07.634, 1556921947634
25, 0.00, 34.51, 0.00, 0.00, 0.000, 0.000, 0.000, 16:19:07.649, 1556921947649
26, 0.00, 41.13, 0.00, 0.00, 0.000, 0.000, 0.000, 16:19:07.649, 1556921947649
27, 0.00, 33.11, 0.00, 0.00, 0.000, 0.000, 0.000, 16:19:07.665, 1556921947665
28, 0.00, 39.77, 0.00, 0.00, 0.000, 0.000, 0.000, 16:19:07.665, 1556921947665
29, 0.00, 43.42, 0.00, 0.00, 0.000, 0.000, 0.000, 16:19:07.666, 1556921947666
30, 0.00, 41.83, 0.00, 0.00, 0.000, 0.000, 0.000, 16:19:07.666, 1556921947666
31, 0.00, 39.74, 0.00, 0.00, 0.000, 0.000, 0.000, 16:19:07.679, 1556921947679
32, 0.00, 41.35, 0.00, 0.00, 0.000, 0.000, 0.000, 16:19:07.679, 1556921947679
33, 0.00, 40.56, 0.00, 0.00, 0.000, 0.000, 0.000, 16:19:07.695, 1556921947695
34, 0.00, 35.57, 0.00, 0.00, 0.000, 0.000, 0.000, 16:19:07.695, 1556921947695
35, 0.00, 33.01, 0.00, 0.00, 0.000, 0.000, 0.000, 16:19:07.696, 1556921947696
36, 0.00, 32.44, 0.00, 0.00, 0.000, 0.000, 0.000, 16:19:07.696, 1556921947696
37, 0.00, 30.13, 0.00, 0.00, 0.000, 0.000, 0.000, 16:19:07.709, 1556921947709
38, 0.00, 33.28, 0.00, 0.00, 0.000, 0.000, 0.000, 16:19:07.709, 1556921947709
39, 0.00, 29.03, 0.00, 0.00, 0.000, 0.000, 0.000, 16:19:07.725, 1556921947725
40, 0.00, 25.39, 0.00, 0.00, 0.000, 0.000, 0.000, 16:19:07.725, 1556921947725
41, 0.00, 26.09, 0.00, 0.00, 0.000, 0.000, 0.000, 16:19:07.726, 1556921947726
42, 0.00, 23.81, 0.00, 0.00, 0.000, 0.000, 0.000, 16:19:07.726, 1556921947726
43, 0.00, 32.04, 0.00, 0.00, 0.000, 0.000, 0.000, 16:19:07.739, 1556921947739
44, 0.00, 32.38, 0.00, 0.00, 0.000, 0.000, 0.000, 16:19:07.739, 1556921947739
45, 0.00, 32.73, 0.00, 0.00, 0.000, 0.000, 0.000, 16:19:07.755, 1556921947755
46, 0.00, 33.97, 0.00, 0.00, 0.000, 0.000, 0.000, 16:19:07.755, 1556921947755
47, 0.00, 32.87, 0.00, 0.00, 0.000, 0.000, 0.000, 16:19:07.756, 1556921947756
48, 0.00, 34.52, 0.00, 0.00, 0.000, 0.000, 0.000, 16:19:07.756, 1556921947756
49, 0.00, 35.73, 0.00, 0.00, 0.000, 0.000, 0.000, 16:19:07.769, 1556921947769
50, 0.00, 51.84, 0.00, 0.00, 0.000, 0.000, 0.000, 16:19:07.769, 1556921947769
51, 0.00, 51.81, 0.00, 0.00, 0.000, 0.000, 0.000, 16:19:07.785, 1556921947785
52, 0.00, 51.77, 0.00, 0.00, 0.000, 0.000, 0.000, 16:19:07.785, 1556921947785
53, 0.00, 49.99, 0.00, 0.00, 0.000, 0.000, 0.000, 16:19:07.786, 1556921947786
54, 0.00, 54.17, 0.00, 0.00, 0.000, 0.000, 0.000, 16:19:07.786, 1556921947786
55, 0.00, 61.93, 0.00, 0.00, 0.000, 0.000, 0.000, 16:19:07.799, 1556921947799
56, 0.00, 63.84, 0.00, 0.00, 0.000, 0.000, 0.000, 16:19:07.799, 1556921947799
57, 0.00, 67.49, 0.00, 0.00, 0.000, 0.000, 0.000, 16:19:07.815, 1556921947815
58, 0.00, 42.38, 0.00, 0.00, 0.000, 0.000, 0.000, 16:19:07.815, 1556921947815
59, 0.00, -38.52, 0.00, 0.00, 0.000, 0.000, 0.000, 16:19:07.816, 1556921947816
60, 0.00, 149.04, 0.00, 0.00, 0.000, 0.000, 0.000, 16:19:07.816, 1556921947816
61, 0.00, -20.78, 0.00, 0.00, 0.000, 0.000, 0.000, 16:19:07.829, 1556921947829
62, 0.00, 62.81, 0.00, 0.00, 0.000, 0.000, 0.000, 16:19:07.829, 1556921947829
63, 0.00, 12.48, 0.00, 0.00, 0.000, 0.000, 0.000, 16:19:07.861, 1556921947861
64, 0.00, 148.64, 0.00, 0.00, 0.000, 0.000, 0.000, 16:19:07.861, 1556921947861
65, 0.00, 6.53, 0.00, 0.00, 0.000, 0.000, 0.000, 16:19:07.862, 1556921947862
66, 0.00, -808.88, 0.00, 0.00, 0.000, 0.000, 0.000, 16:19:07.862, 1556921947862
67, 0.00, -1422.28, 0.00, 0.00, 0.000, 0.000, 0.000, 16:19:07.863, 1556921947863
68, 0.00, -2070.84, 0.00, 0.00, 0.000, 0.000, 0.000, 16:19:07.863, 1556921947863
69, 0.00, -2246.32, 0.00, 0.00, 0.000, 0.000, 0.000, 16:19:07.863, 1556921947863
70, 0.00, -2041.73, 0.00, 0.00, 0.000, 0.000, 0.000, 16:19:07.863, 1556921947863
71, 0.00, -2265.00, 0.00, 0.00, 0.000, 0.000, 0.000, 16:19:07.875, 1556921947875
72, 0.00, -2124.11, 0.00, 0.00, 0.000, 0.000, 0.000, 16:19:07.875, 1556921947875
73, 0.00, -2025.24, 0.00, 0.00, 0.000, 0.000, 0.000, 16:19:07.889, 1556921947889
74, 0.00, -1738.68, 0.00, 0.00, 0.000, 0.000, 0.000, 16:19:07.889, 1556921947889
75, 0.00, -1493.03, 0.00, 0.00, 0.000, 0.000, 0.000, 16:19:07.905, 1556921947905
76, 0.00, -875.56, 0.00, 0.00, 0.000, 0.000, 0.000, 16:19:07.905, 1556921947905
77, 0.00, -255.19, 0.00, 0.00, 0.000, 0.000, 0.000, 16:19:07.909, 1556921947909
78, 0.00, -5.20, 0.00, 0.00, 0.000, 0.000, 0.000, 16:19:07.909, 1556921947909
79, 0.00, 102.08, 0.00, 0.00, 0.000, 0.000, 0.000, 16:19:07.919, 1556921947919
80, 0.00, 264.74, 0.00, 0.00, 0.000, 0.000, 0.000, 16:19:07.919, 1556921947919
81, 0.00, 379.95, 0.00, 0.00, 0.000, 0.000, 0.000, 16:19:07.934, 1556921947934
82, 0.00, 528.69, 0.00, 0.00, 0.000, 0.000, 0.000, 16:19:07.934, 1556921947934
83, 0.00, 588.25, 0.00, 0.00, 0.000, 0.000, 0.000, 16:19:07.936, 1556921947936
84, 0.00, 443.03, 0.00, 0.00, 0.000, 0.000, 0.000, 16:19:07.936, 1556921947936
85, 0.00, 674.71, 0.00, 0.00, 0.000, 0.000, 0.000, 16:19:07.949, 1556921947949
86, 0.00, 708.21, 0.00, 0.00, 0.000, 0.000, 0.000, 16:19:07.949, 1556921947949
87, 0.00, 779.28, 0.00, 0.00, 0.000, 0.000, 0.000, 16:19:07.965, 1556921947965
88, 0.00, 805.10, 0.00, 0.00, 0.000, 0.000, 0.000, 16:19:07.965, 1556921947965
89, 0.00, 1039.03, 0.00, 0.00, 0.000, 0.000, 0.000, 16:19:07.965, 1556921947965
90, 0.00, 977.65, 0.00, 0.00, 0.000, 0.000, 0.000, 16:19:07.965, 1556921947965
91, 0.00, 1208.80, 0.00, 0.00, 0.000, 0.000, 0.000, 16:19:07.979, 1556921947979
92, 0.00, 1084.46, 0.00, 0.00, 0.000, 0.000, 0.000, 16:19:07.979, 1556921947979
93, 0.00, 1570.90, 0.00, 0.00, 0.000, 0.000, 0.000, 16:19:07.995, 1556921947995
94, 0.00, 1358.81, 0.00, 0.00, 0.000, 0.000, 0.000, 16:19:07.995, 1556921947995
95, 0.00, 1457.85, 0.00, 0.00, 0.000, 0.000, 0.000, 16:19:07.996, 1556921947996
96, 0.00, 1678.37, 0.00, 0.00, 0.000, 0.000, 0.000, 16:19:07.996, 1556921947996
97, 0.00, 1746.45, 0.00, 0.00, 0.000, 0.000, 0.000, 16:19:08.009, 1556921948009
98, 0.00, 1576.17, 0.00, 0.00, 0.000, 0.000, 0.000, 16:19:08.009, 1556921948009
99, 0.00, 1829.04, 0.00, 0.00, 0.000, 0.000, 0.000, 16:19:08.025, 1556921948025
100, 0.00, 1953.15, 0.00, 0.00, 0.000, 0.000, 0.000, 16:19:08.025, 1556921948025
101, 0.00, 1669.75, 0.00, 0.00, 0.000, 0.000, 0.000, 16:19:08.026, 1556921948026
102, 0.00, 1739.18, 0.00, 0.00, 0.000, 0.000, 0.000, 16:19:08.026, 1556921948026
103, 0.00, 1966.62, 0.00, 0.00, 0.000, 0.000, 0.000, 16:19:08.040, 1556921948040
104, 0.00, 1911.88, 0.00, 0.00, 0.000, 0.000, 0.000, 16:19:08.040, 1556921948040
