%OpenBCI Raw EEG Data
%Number of channels = 4
%Sample Rate = 200.0 Hz
%First Column = SampleIndex
%Last Column = Timestamp 
%Other Columns = EEG data in microvolts followed by Accel Data (in G) interleaved with Aux Data
0, 0.00, -58.05, 0.00, 0.00, 0.000, 0.000, 0.000, 16:06:57.862, 1556921217862
1, 0.00, -68.16, 0.00, 0.00, 0.000, 0.000, 0.000, 16:06:57.876, 1556921217876
2, 0.00, -72.17, 0.00, 0.00, 0.000, 0.000, 0.000, 16:06:57.876, 1556921217876
3, 0.00, -61.37, 0.00, 0.00, 0.000, 0.000, 0.000, 16:06:57.890, 1556921217890
4, 0.00, -60.25, 0.00, 0.00, 0.000, 0.000, 0.000, 16:06:57.890, 1556921217890
5, 0.00, -64.76, 0.00, 0.00, 0.000, 0.000, 0.000, 16:06:57.892, 1556921217892
6, 0.00, -55.03, 0.00, 0.00, 0.000, 0.000, 0.000, 16:06:57.892, 1556921217892
7, 0.00, -55.75, 0.00, 0.00, 0.000, 0.000, 0.000, 16:06:57.904, 1556921217904
8, 0.00, -71.07, 0.00, 0.00, 0.000, 0.000, 0.000, 16:06:57.904, 1556921217904
9, 0.00, -65.24, 0.00, 0.00, 0.000, 0.000, 0.000, 16:06:57.920, 1556921217920
10, 0.00, -58.64, 0.00, 0.00, 0.000, 0.000, 0.000, 16:06:57.920, 1556921217920
11, 0.00, -61.05, 0.00, 0.00, 0.000, 0.000, 0.000, 16:06:57.921, 1556921217921
12, 0.00, -59.58, 0.00, 0.00, 0.000, 0.000, 0.000, 16:06:57.921, 1556921217921
13, 0.00, -52.47, 0.00, 0.00, 0.000, 0.000, 0.000, 16:06:57.935, 1556921217935
14, 0.00, -60.97, 0.00, 0.00, 0.000, 0.000, 0.000, 16:06:57.935, 1556921217935
15, 0.00, -67.45, 0.00, 0.00, 0.000, 0.000, 0.000, 16:06:57.952, 1556921217952
16, 0.00, -59.27, 0.00, 0.00, 0.000, 0.000, 0.000, 16:06:57.952, 1556921217952
17, 0.00, -53.28, 0.00, 0.00, 0.000, 0.000, 0.000, 16:06:57.953, 1556921217953
18, 0.00, -64.40, 0.00, 0.00, 0.000, 0.000, 0.000, 16:06:57.953, 1556921217953
19, 0.00, -62.36, 0.00, 0.00, 0.000, 0.000, 0.000, 16:06:57.964, 1556921217964
20, 0.00, -57.73, 0.00, 0.00, 0.000, 0.000, 0.000, 16:06:57.964, 1556921217964
21, 0.00, -64.02, 0.00, 0.00, 0.000, 0.000, 0.000, 16:06:57.980, 1556921217980
22, 0.00, -68.54, 0.00, 0.00, 0.000, 0.000, 0.000, 16:06:57.980, 1556921217980
23, 0.00, -62.38, 0.00, 0.00, 0.000, 0.000, 0.000, 16:06:57.982, 1556921217982
24, 0.00, -58.14, 0.00, 0.00, 0.000, 0.000, 0.000, 16:06:57.982, 1556921217982
25, 0.00, -61.68, 0.00, 0.00, 0.000, 0.000, 0.000, 16:06:57.994, 1556921217994
26, 0.00, -55.90, 0.00, 0.00, 0.000, 0.000, 0.000, 16:06:57.994, 1556921217994
27, 0.00, -55.65, 0.00, 0.00, 0.000, 0.000, 0.000, 16:06:58.010, 1556921218010
28, 0.00, -57.77, 0.00, 0.00, 0.000, 0.000, 0.000, 16:06:58.010, 1556921218010
29, 0.00, -53.48, 0.00, 0.00, 0.000, 0.000, 0.000, 16:06:58.012, 1556921218012
30, 0.00, -53.13, 0.00, 0.00, 0.000, 0.000, 0.000, 16:06:58.012, 1556921218012
31, 0.00, -61.41, 0.00, 0.00, 0.000, 0.000, 0.000, 16:06:58.025, 1556921218025
32, 0.00, -61.42, 0.00, 0.00, 0.000, 0.000, 0.000, 16:06:58.025, 1556921218025
33, 0.00, -53.90, 0.00, 0.00, 0.000, 0.000, 0.000, 16:06:58.041, 1556921218041
34, 0.00, -53.94, 0.00, 0.00, 0.000, 0.000, 0.000, 16:06:58.041, 1556921218041
35, 0.00, -53.86, 0.00, 0.00, 0.000, 0.000, 0.000, 16:06:58.045, 1556921218045
36, 0.00, -45.53, 0.00, 0.00, 0.000, 0.000, 0.000, 16:06:58.045, 1556921218045
37, 0.00, -50.57, 0.00, 0.00, 0.000, 0.000, 0.000, 16:06:58.054, 1556921218054
38, 0.00, -56.57, 0.00, 0.00, 0.000, 0.000, 0.000, 16:06:58.054, 1556921218054
39, 0.00, -48.54, 0.00, 0.00, 0.000, 0.000, 0.000, 16:06:58.073, 1556921218073
40, 0.00, -51.69, 0.00, 0.00, 0.000, 0.000, 0.000, 16:06:58.073, 1556921218073
41, 0.00, -56.20, 0.00, 0.00, 0.000, 0.000, 0.000, 16:06:58.079, 1556921218079
42, 0.00, -50.09, 0.00, 0.00, 0.000, 0.000, 0.000, 16:06:58.079, 1556921218079
43, 0.00, -42.44, 0.00, 0.00, 0.000, 0.000, 0.000, 16:06:58.091, 1556921218091
44, 0.00, -51.94, 0.00, 0.00, 0.000, 0.000, 0.000, 16:06:58.091, 1556921218091
45, 0.00, -53.21, 0.00, 0.00, 0.000, 0.000, 0.000, 16:06:58.101, 1556921218101
46, 0.00, -42.90, 0.00, 0.00, 0.000, 0.000, 0.000, 16:06:58.101, 1556921218101
47, 0.00, -49.09, 0.00, 0.00, 0.000, 0.000, 0.000, 16:06:58.104, 1556921218104
48, 0.00, -53.82, 0.00, 0.00, 0.000, 0.000, 0.000, 16:06:58.104, 1556921218104
49, 0.00, -49.00, 0.00, 0.00, 0.000, 0.000, 0.000, 16:06:58.115, 1556921218115
50, 0.00, -54.75, 0.00, 0.00, 0.000, 0.000, 0.000, 16:06:58.115, 1556921218115
51, 0.00, -52.29, 0.00, 0.00, 0.000, 0.000, 0.000, 16:06:58.131, 1556921218131
52, 0.00, -51.28, 0.00, 0.00, 0.000, 0.000, 0.000, 16:06:58.131, 1556921218131
53, 0.00, -35.84, 0.00, 0.00, 0.000, 0.000, 0.000, 16:06:58.138, 1556921218138
54, 0.00, -50.23, 0.00, 0.00, 0.000, 0.000, 0.000, 16:06:58.138, 1556921218138
55, 0.00, -56.58, 0.00, 0.00, 0.000, 0.000, 0.000, 16:06:58.145, 1556921218145
56, 0.00, -48.98, 0.00, 0.00, 0.000, 0.000, 0.000, 16:06:58.145, 1556921218145
57, 0.00, -50.06, 0.00, 0.00, 0.000, 0.000, 0.000, 16:06:58.160, 1556921218160
58, 0.00, -53.88, 0.00, 0.00, 0.000, 0.000, 0.000, 16:06:58.160, 1556921218160
59, 0.00, -54.10, 0.00, 0.00, 0.000, 0.000, 0.000, 16:06:58.162, 1556921218162
60, 0.00, -52.23, 0.00, 0.00, 0.000, 0.000, 0.000, 16:06:58.162, 1556921218162
61, 0.00, -57.76, 0.00, 0.00, 0.000, 0.000, 0.000, 16:06:58.174, 1556921218174
62, 0.00, -62.50, 0.00, 0.00, 0.000, 0.000, 0.000, 16:06:58.174, 1556921218174
63, 0.00, -39.64, 0.00, 0.00, 0.000, 0.000, 0.000, 16:06:58.190, 1556921218190
64, 0.00, -44.62, 0.00, 0.00, 0.000, 0.000, 0.000, 16:06:58.190, 1556921218190
65, 0.00, -55.32, 0.00, 0.00, 0.000, 0.000, 0.000, 16:06:58.191, 1556921218191
66, 0.00, -52.54, 0.00, 0.00, 0.000, 0.000, 0.000, 16:06:58.191, 1556921218191
67, 0.00, -53.68, 0.00, 0.00, 0.000, 0.000, 0.000, 16:06:58.205, 1556921218205
68, 0.00, -68.37, 0.00, 0.00, 0.000, 0.000, 0.000, 16:06:58.205, 1556921218205
69, 0.00, -47.41, 0.00, 0.00, 0.000, 0.000, 0.000, 16:06:58.222, 1556921218222
70, 0.00, -51.28, 0.00, 0.00, 0.000, 0.000, 0.000, 16:06:58.222, 1556921218222
71, 0.00, -61.28, 0.00, 0.00, 0.000, 0.000, 0.000, 16:06:58.236, 1556921218236
72, 0.00, -53.66, 0.00, 0.00, 0.000, 0.000, 0.000, 16:06:58.236, 1556921218236
73, 0.00, -51.68, 0.00, 0.00, 0.000, 0.000, 0.000, 16:06:58.240, 1556921218240
74, 0.00, -49.87, 0.00, 0.00, 0.000, 0.000, 0.000, 16:06:58.240, 1556921218240
75, 0.00, -54.09, 0.00, 0.00, 0.000, 0.000, 0.000, 16:06:58.251, 1556921218251
76, 0.00, -43.88, 0.00, 0.00, 0.000, 0.000, 0.000, 16:06:58.251, 1556921218251
77, 0.00, -43.06, 0.00, 0.00, 0.000, 0.000, 0.000, 16:06:58.262, 1556921218262
78, 0.00, -52.61, 0.00, 0.00, 0.000, 0.000, 0.000, 16:06:58.262, 1556921218262
79, 0.00, -37.00, 0.00, 0.00, 0.000, 0.000, 0.000, 16:06:58.266, 1556921218266
80, 0.00, -44.39, 0.00, 0.00, 0.000, 0.000, 0.000, 16:06:58.266, 1556921218266
81, 0.00, -46.89, 0.00, 0.00, 0.000, 0.000, 0.000, 16:06:58.280, 1556921218280
82, 0.00, -45.99, 0.00, 0.00, 0.000, 0.000, 0.000, 16:06:58.280, 1556921218280
83, 0.00, -35.36, 0.00, 0.00, 0.000, 0.000, 0.000, 16:06:58.280, 1556921218280
84, 0.00, -38.51, 0.00, 0.00, 0.000, 0.000, 0.000, 16:06:58.280, 1556921218280
85, 0.00, -43.89, 0.00, 0.00, 0.000, 0.000, 0.000, 16:06:58.296, 1556921218296
86, 0.00, -34.72, 0.00, 0.00, 0.000, 0.000, 0.000, 16:06:58.296, 1556921218296
87, 0.00, -28.44, 0.00, 0.00, 0.000, 0.000, 0.000, 16:06:58.310, 1556921218310
88, 0.00, -42.24, 0.00, 0.00, 0.000, 0.000, 0.000, 16:06:58.310, 1556921218310
89, 0.00, -35.59, 0.00, 0.00, 0.000, 0.000, 0.000, 16:06:58.312, 1556921218312
90, 0.00, -25.59, 0.00, 0.00, 0.000, 0.000, 0.000, 16:06:58.312, 1556921218312
91, 0.00, -34.44, 0.00, 0.00, 0.000, 0.000, 0.000, 16:06:58.324, 1556921218324
92, 0.00, -39.85, 0.00, 0.00, 0.000, 0.000, 0.000, 16:06:58.324, 1556921218324
93, 0.00, -20.07, 0.00, 0.00, 0.000, 0.000, 0.000, 16:06:58.340, 1556921218340
94, 0.00, -31.91, 0.00, 0.00, 0.000, 0.000, 0.000, 16:06:58.340, 1556921218340
95, 0.00, -36.33, 0.00, 0.00, 0.000, 0.000, 0.000, 16:06:58.341, 1556921218341
96, 0.00, -29.69, 0.00, 0.00, 0.000, 0.000, 0.000, 16:06:58.341, 1556921218341
97, 0.00, -31.32, 0.00, 0.00, 0.000, 0.000, 0.000, 16:06:58.355, 1556921218355
98, 0.00, -42.00, 0.00, 0.00, 0.000, 0.000, 0.000, 16:06:58.355, 1556921218355
99, 0.00, -36.65, 0.00, 0.00, 0.000, 0.000, 0.000, 16:06:58.370, 1556921218370
100, 0.00, -27.74, 0.00, 0.00, 0.000, 0.000, 0.000, 16:06:58.370, 1556921218370
101, 0.00, -33.50, 0.00, 0.00, 0.000, 0.000, 0.000, 16:06:58.371, 1556921218371
102, 0.00, -38.46, 0.00, 0.00, 0.000, 0.000, 0.000, 16:06:58.371, 1556921218371
103, 0.00, -31.48, 0.00, 0.00, 0.000, 0.000, 0.000, 16:06:58.384, 1556921218384
104, 0.00, -35.91, 0.00, 0.00, 0.000, 0.000, 0.000, 16:06:58.384, 1556921218384
105, 0.00, -38.11, 0.00, 0.00, 0.000, 0.000, 0.000, 16:06:58.400, 1556921218400
106, 0.00, -28.45, 0.00, 0.00, 0.000, 0.000, 0.000, 16:06:58.400, 1556921218400
107, 0.00, -31.73, 0.00, 0.00, 0.000, 0.000, 0.000, 16:06:58.401, 1556921218401
108, 0.00, -38.91, 0.00, 0.00, 0.000, 0.000, 0.000, 16:06:58.401, 1556921218401
109, 0.00, -40.09, 0.00, 0.00, 0.000, 0.000, 0.000, 16:06:58.415, 1556921218415
110, 0.00, -35.66, 0.00, 0.00, 0.000, 0.000, 0.000, 16:06:58.415, 1556921218415
111, 0.00, -38.65, 0.00, 0.00, 0.000, 0.000, 0.000, 16:06:58.432, 1556921218432
112, 0.00, -37.70, 0.00, 0.00, 0.000, 0.000, 0.000, 16:06:58.432, 1556921218432
113, 0.00, -40.09, 0.00, 0.00, 0.000, 0.000, 0.000, 16:06:58.441, 1556921218441
114, 0.00, -32.25, 0.00, 0.00, 0.000, 0.000, 0.000, 16:06:58.441, 1556921218441
115, 0.00, -44.02, 0.00, 0.00, 0.000, 0.000, 0.000, 16:06:58.448, 1556921218448
116, 0.00, -23.72, 0.00, 0.00, 0.000, 0.000, 0.000, 16:06:58.448, 1556921218448
117, 0.00, -30.44, 0.00, 0.00, 0.000, 0.000, 0.000, 16:06:58.461, 1556921218461
118, 0.00, -39.51, 0.00, 0.00, 0.000, 0.000, 0.000, 16:06:58.461, 1556921218461
119, 0.00, -33.28, 0.00, 0.00, 0.000, 0.000, 0.000, 16:06:58.465, 1556921218465
120, 0.00, -36.80, 0.00, 0.00, 0.000, 0.000, 0.000, 16:06:58.465, 1556921218465
121, 0.00, -39.21, 0.00, 0.00, 0.000, 0.000, 0.000, 16:06:58.474, 1556921218474
122, 0.00, -34.87, 0.00, 0.00, 0.000, 0.000, 0.000, 16:06:58.474, 1556921218474
123, 0.00, -29.25, 0.00, 0.00, 0.000, 0.000, 0.000, 16:06:58.490, 1556921218490
124, 0.00, -36.76, 0.00, 0.00, 0.000, 0.000, 0.000, 16:06:58.490, 1556921218490
125, 0.00, -36.86, 0.00, 0.00, 0.000, 0.000, 0.000, 16:06:58.491, 1556921218491
126, 0.00, -29.39, 0.00, 0.00, 0.000, 0.000, 0.000, 16:06:58.491, 1556921218491
127, 0.00, -29.86, 0.00, 0.00, 0.000, 0.000, 0.000, 16:06:58.505, 1556921218505
128, 0.00, -36.22, 0.00, 0.00, 0.000, 0.000, 0.000, 16:06:58.505, 1556921218505
129, 0.00, -36.26, 0.00, 0.00, 0.000, 0.000, 0.000, 16:06:58.520, 1556921218520
130, 0.00, -27.97, 0.00, 0.00, 0.000, 0.000, 0.000, 16:06:58.520, 1556921218520
131, 0.00, -31.61, 0.00, 0.00, 0.000, 0.000, 0.000, 16:06:58.521, 1556921218521
132, 0.00, -29.54, 0.00, 0.00, 0.000, 0.000, 0.000, 16:06:58.521, 1556921218521
133, 0.00, -26.62, 0.00, 0.00, 0.000, 0.000, 0.000, 16:06:58.536, 1556921218536
134, 0.00, -31.87, 0.00, 0.00, 0.000, 0.000, 0.000, 16:06:58.536, 1556921218536
135, 0.00, -38.90, 0.00, 0.00, 0.000, 0.000, 0.000, 16:06:58.550, 1556921218550
136, 0.00, -28.81, 0.00, 0.00, 0.000, 0.000, 0.000, 16:06:58.550, 1556921218550
137, 0.00, -27.44, 0.00, 0.00, 0.000, 0.000, 0.000, 16:06:58.553, 1556921218553
138, 0.00, -31.63, 0.00, 0.00, 0.000, 0.000, 0.000, 16:06:58.553, 1556921218553
139, 0.00, -21.28, 0.00, 0.00, 0.000, 0.000, 0.000, 16:06:58.565, 1556921218565
140, 0.00, -22.55, 0.00, 0.00, 0.000, 0.000, 0.000, 16:06:58.565, 1556921218565
141, 0.00, -29.81, 0.00, 0.00, 0.000, 0.000, 0.000, 16:06:58.581, 1556921218581
142, 0.00, -33.07, 0.00, 0.00, 0.000, 0.000, 0.000, 16:06:58.581, 1556921218581
143, 0.00, -26.06, 0.00, 0.00, 0.000, 0.000, 0.000, 16:06:58.585, 1556921218585
144, 0.00, -21.14, 0.00, 0.00, 0.000, 0.000, 0.000, 16:06:58.585, 1556921218585
145, 0.00, -36.57, 0.00, 0.00, 0.000, 0.000, 0.000, 16:06:58.594, 1556921218594
146, 0.00, -23.95, 0.00, 0.00, 0.000, 0.000, 0.000, 16:06:58.594, 1556921218594
147, 0.00, -27.31, 0.00, 0.00, 0.000, 0.000, 0.000, 16:06:58.610, 1556921218610
148, 0.00, -29.17, 0.00, 0.00, 0.000, 0.000, 0.000, 16:06:58.610, 1556921218610
149, 0.00, -24.33, 0.00, 0.00, 0.000, 0.000, 0.000, 16:06:58.611, 1556921218611
150, 0.00, -24.75, 0.00, 0.00, 0.000, 0.000, 0.000, 16:06:58.611, 1556921218611
151, 0.00, -32.46, 0.00, 0.00, 0.000, 0.000, 0.000, 16:06:58.625, 1556921218625
152, 0.00, -27.09, 0.00, 0.00, 0.000, 0.000, 0.000, 16:06:58.625, 1556921218625
153, 0.00, -21.44, 0.00, 0.00, 0.000, 0.000, 0.000, 16:06:58.642, 1556921218642
154, 0.00, -27.52, 0.00, 0.00, 0.000, 0.000, 0.000, 16:06:58.642, 1556921218642
155, 0.00, -34.50, 0.00, 0.00, 0.000, 0.000, 0.000, 16:06:58.642, 1556921218642
156, 0.00, -27.28, 0.00, 0.00, 0.000, 0.000, 0.000, 16:06:58.642, 1556921218642
157, 0.00, -33.58, 0.00, 0.00, 0.000, 0.000, 0.000, 16:06:58.655, 1556921218655
158, 0.00, -34.08, 0.00, 0.00, 0.000, 0.000, 0.000, 16:06:58.655, 1556921218655
159, 0.00, -33.06, 0.00, 0.00, 0.000, 0.000, 0.000, 16:06:58.670, 1556921218670
160, 0.00, -31.63, 0.00, 0.00, 0.000, 0.000, 0.000, 16:06:58.670, 1556921218670
161, 0.00, -36.60, 0.00, 0.00, 0.000, 0.000, 0.000, 16:06:58.671, 1556921218671
162, 0.00, -33.14, 0.00, 0.00, 0.000, 0.000, 0.000, 16:06:58.671, 1556921218671
163, 0.00, -31.22, 0.00, 0.00, 0.000, 0.000, 0.000, 16:06:58.684, 1556921218684
164, 0.00, -34.98, 0.00, 0.00, 0.000, 0.000, 0.000, 16:06:58.684, 1556921218684
165, 0.00, -36.60, 0.00, 0.00, 0.000, 0.000, 0.000, 16:06:58.701, 1556921218701
166, 0.00, -27.64, 0.00, 0.00, 0.000, 0.000, 0.000, 16:06:58.701, 1556921218701
167, 0.00, -34.78, 0.00, 0.00, 0.000, 0.000, 0.000, 16:06:58.709, 1556921218709
168, 0.00, -41.12, 0.00, 0.00, 0.000, 0.000, 0.000, 16:06:58.709, 1556921218709
169, 0.00, -32.82, 0.00, 0.00, 0.000, 0.000, 0.000, 16:06:58.714, 1556921218714
170, 0.00, -31.27, 0.00, 0.00, 0.000, 0.000, 0.000, 16:06:58.714, 1556921218714
171, 0.00, -33.77, 0.00, 0.00, 0.000, 0.000, 0.000, 16:06:58.730, 1556921218730
172, 0.00, -36.91, 0.00, 0.00, 0.000, 0.000, 0.000, 16:06:58.730, 1556921218730
173, 0.00, -24.77, 0.00, 0.00, 0.000, 0.000, 0.000, 16:06:58.731, 1556921218731
174, 0.00, -35.11, 0.00, 0.00, 0.000, 0.000, 0.000, 16:06:58.731, 1556921218731
175, 0.00, -40.42, 0.00, 0.00, 0.000, 0.000, 0.000, 16:06:58.745, 1556921218745
176, 0.00, -32.11, 0.00, 0.00, 0.000, 0.000, 0.000, 16:06:58.745, 1556921218745
177, 0.00, -31.47, 0.00, 0.00, 0.000, 0.000, 0.000, 16:06:58.760, 1556921218760
178, 0.00, -30.56, 0.00, 0.00, 0.000, 0.000, 0.000, 16:06:58.760, 1556921218760
179, 0.00, -33.19, 0.00, 0.00, 0.000, 0.000, 0.000, 16:06:58.762, 1556921218762
180, 0.00, -27.29, 0.00, 0.00, 0.000, 0.000, 0.000, 16:06:58.762, 1556921218762
181, 0.00, -25.19, 0.00, 0.00, 0.000, 0.000, 0.000, 16:06:58.775, 1556921218775
182, 0.00, -30.06, 0.00, 0.00, 0.000, 0.000, 0.000, 16:06:58.775, 1556921218775
183, 0.00, -25.66, 0.00, 0.00, 0.000, 0.000, 0.000, 16:06:58.790, 1556921218790
184, 0.00, -25.70, 0.00, 0.00, 0.000, 0.000, 0.000, 16:06:58.790, 1556921218790
185, 0.00, -29.54, 0.00, 0.00, 0.000, 0.000, 0.000, 16:06:58.791, 1556921218791
186, 0.00, -25.90, 0.00, 0.00, 0.000, 0.000, 0.000, 16:06:58.791, 1556921218791
187, 0.00, -23.65, 0.00, 0.00, 0.000, 0.000, 0.000, 16:06:58.805, 1556921218805
188, 0.00, -33.41, 0.00, 0.00, 0.000, 0.000, 0.000, 16:06:58.805, 1556921218805
189, 0.00, -26.42, 0.00, 0.00, 0.000, 0.000, 0.000, 16:06:58.820, 1556921218820
190, 0.00, -13.95, 0.00, 0.00, 0.000, 0.000, 0.000, 16:06:58.820, 1556921218820
191, 0.00, -23.39, 0.00, 0.00, 0.000, 0.000, 0.000, 16:06:58.822, 1556921218822
192, 0.00, -26.74, 0.00, 0.00, 0.000, 0.000, 0.000, 16:06:58.822, 1556921218822
193, 0.00, -22.58, 0.00, 0.00, 0.000, 0.000, 0.000, 16:06:58.835, 1556921218835
194, 0.00, -29.49, 0.00, 0.00, 0.000, 0.000, 0.000, 16:06:58.835, 1556921218835
195, 0.00, -27.99, 0.00, 0.00, 0.000, 0.000, 0.000, 16:06:58.850, 1556921218850
196, 0.00, -19.94, 0.00, 0.00, 0.000, 0.000, 0.000, 16:06:58.850, 1556921218850
197, 0.00, -26.73, 0.00, 0.00, 0.000, 0.000, 0.000, 16:06:58.854, 1556921218854
198, 0.00, -27.75, 0.00, 0.00, 0.000, 0.000, 0.000, 16:06:58.854, 1556921218854
199, 0.00, -25.77, 0.00, 0.00, 0.000, 0.000, 0.000, 16:06:58.865, 1556921218865
200, 0.00, -23.14, 0.00, 0.00, 0.000, 0.000, 0.000, 16:06:58.865, 1556921218865
0, 0.00, -27.78, 0.00, 0.00, 0.000, 0.000, 0.000, 16:06:58.867, 1556921218867
1, 0.00, -31.86, 0.00, 0.00, 0.000, 0.000, 0.000, 16:06:58.879, 1556921218879
2, 0.00, -27.24, 0.00, 0.00, 0.000, 0.000, 0.000, 16:06:58.879, 1556921218879
3, 0.00, -27.97, 0.00, 0.00, 0.000, 0.000, 0.000, 16:06:58.894, 1556921218894
4, 0.00, -29.97, 0.00, 0.00, 0.000, 0.000, 0.000, 16:06:58.894, 1556921218894
5, 0.00, -21.35, 0.00, 0.00, 0.000, 0.000, 0.000, 16:06:58.896, 1556921218896
6, 0.00, -26.71, 0.00, 0.00, 0.000, 0.000, 0.000, 16:06:58.896, 1556921218896
7, 0.00, -29.96, 0.00, 0.00, 0.000, 0.000, 0.000, 16:06:58.909, 1556921218909
8, 0.00, -21.06, 0.00, 0.00, 0.000, 0.000, 0.000, 16:06:58.909, 1556921218909
9, 0.00, -27.42, 0.00, 0.00, 0.000, 0.000, 0.000, 16:06:58.924, 1556921218924
10, 0.00, -25.58, 0.00, 0.00, 0.000, 0.000, 0.000, 16:06:58.924, 1556921218924
11, 0.00, -26.68, 0.00, 0.00, 0.000, 0.000, 0.000, 16:06:58.926, 1556921218926
12, 0.00, -19.46, 0.00, 0.00, 0.000, 0.000, 0.000, 16:06:58.926, 1556921218926
13, 0.00, -25.93, 0.00, 0.00, 0.000, 0.000, 0.000, 16:06:58.939, 1556921218939
14, 0.00, -34.92, 0.00, 0.00, 0.000, 0.000, 0.000, 16:06:58.939, 1556921218939
15, 0.00, -21.56, 0.00, 0.00, 0.000, 0.000, 0.000, 16:06:58.955, 1556921218955
16, 0.00, -23.37, 0.00, 0.00, 0.000, 0.000, 0.000, 16:06:58.955, 1556921218955
17, 0.00, -34.12, 0.00, 0.00, 0.000, 0.000, 0.000, 16:06:58.956, 1556921218956
18, 0.00, -25.71, 0.00, 0.00, 0.000, 0.000, 0.000, 16:06:58.956, 1556921218956
19, 0.00, -19.55, 0.00, 0.00, 0.000, 0.000, 0.000, 16:06:58.970, 1556921218970
20, 0.00, -29.16, 0.00, 0.00, 0.000, 0.000, 0.000, 16:06:58.970, 1556921218970
21, 0.00, -28.83, 0.00, 0.00, 0.000, 0.000, 0.000, 16:06:58.990, 1556921218990
22, 0.00, -22.50, 0.00, 0.00, 0.000, 0.000, 0.000, 16:06:58.990, 1556921218990
23, 0.00, -23.71, 0.00, 0.00, 0.000, 0.000, 0.000, 16:06:58.992, 1556921218992
24, 0.00, -26.65, 0.00, 0.00, 0.000, 0.000, 0.000, 16:06:58.992, 1556921218992
25, 0.00, -22.94, 0.00, 0.00, 0.000, 0.000, 0.000, 16:06:58.999, 1556921218999
26, 0.00, -20.00, 0.00, 0.00, 0.000, 0.000, 0.000, 16:06:58.999, 1556921218999
27, 0.00, -28.55, 0.00, 0.00, 0.000, 0.000, 0.000, 16:06:59.015, 1556921219015
28, 0.00, -29.10, 0.00, 0.00, 0.000, 0.000, 0.000, 16:06:59.015, 1556921219015
29, 0.00, -25.27, 0.00, 0.00, 0.000, 0.000, 0.000, 16:06:59.017, 1556921219017
30, 0.00, -36.62, 0.00, 0.00, 0.000, 0.000, 0.000, 16:06:59.017, 1556921219017
31, 0.00, -32.44, 0.00, 0.00, 0.000, 0.000, 0.000, 16:06:59.029, 1556921219029
32, 0.00, -23.14, 0.00, 0.00, 0.000, 0.000, 0.000, 16:06:59.029, 1556921219029
33, 0.00, -29.20, 0.00, 0.00, 0.000, 0.000, 0.000, 16:06:59.046, 1556921219046
34, 0.00, -32.76, 0.00, 0.00, 0.000, 0.000, 0.000, 16:06:59.046, 1556921219046
35, 0.00, -20.03, 0.00, 0.00, 0.000, 0.000, 0.000, 16:06:59.048, 1556921219048
36, 0.00, -30.18, 0.00, 0.00, 0.000, 0.000, 0.000, 16:06:59.048, 1556921219048
37, 0.00, -32.50, 0.00, 0.00, 0.000, 0.000, 0.000, 16:06:59.059, 1556921219059
38, 0.00, -18.21, 0.00, 0.00, 0.000, 0.000, 0.000, 16:06:59.059, 1556921219059
39, 0.00, -20.68, 0.00, 0.00, 0.000, 0.000, 0.000, 16:06:59.074, 1556921219074
40, 0.00, -28.65, 0.00, 0.00, 0.000, 0.000, 0.000, 16:06:59.074, 1556921219074
41, 0.00, -29.20, 0.00, 0.00, 0.000, 0.000, 0.000, 16:06:59.076, 1556921219076
42, 0.00, -20.88, 0.00, 0.00, 0.000, 0.000, 0.000, 16:06:59.076, 1556921219076
43, 0.00, -28.04, 0.00, 0.00, 0.000, 0.000, 0.000, 16:06:59.092, 1556921219092
44, 0.00, -31.52, 0.00, 0.00, 0.000, 0.000, 0.000, 16:06:59.092, 1556921219092
45, 0.00, -18.13, 0.00, 0.00, 0.000, 0.000, 0.000, 16:06:59.105, 1556921219105
46, 0.00, -25.02, 0.00, 0.00, 0.000, 0.000, 0.000, 16:06:59.105, 1556921219105
47, 0.00, -28.05, 0.00, 0.00, 0.000, 0.000, 0.000, 16:06:59.107, 1556921219107
48, 0.00, -18.17, 0.00, 0.00, 0.000, 0.000, 0.000, 16:06:59.107, 1556921219107
49, 0.00, -27.57, 0.00, 0.00, 0.000, 0.000, 0.000, 16:06:59.121, 1556921219121
50, 0.00, -24.11, 0.00, 0.00, 0.000, 0.000, 0.000, 16:06:59.121, 1556921219121
51, 0.00, -29.39, 0.00, 0.00, 0.000, 0.000, 0.000, 16:06:59.136, 1556921219136
52, 0.00, -11.21, 0.00, 0.00, 0.000, 0.000, 0.000, 16:06:59.136, 1556921219136
53, 0.00, -17.09, 0.00, 0.00, 0.000, 0.000, 0.000, 16:06:59.139, 1556921219139
54, 0.00, -24.07, 0.00, 0.00, 0.000, 0.000, 0.000, 16:06:59.139, 1556921219139
55, 0.00, -15.26, 0.00, 0.00, 0.000, 0.000, 0.000, 16:06:59.150, 1556921219150
56, 0.00, -17.10, 0.00, 0.00, 0.000, 0.000, 0.000, 16:06:59.150, 1556921219150
57, 0.00, -20.15, 0.00, 0.00, 0.000, 0.000, 0.000, 16:06:59.165, 1556921219165
58, 0.00, -17.99, 0.00, 0.00, 0.000, 0.000, 0.000, 16:06:59.165, 1556921219165
59, 0.00, -20.30, 0.00, 0.00, 0.000, 0.000, 0.000, 16:06:59.166, 1556921219166
60, 0.00, -26.64, 0.00, 0.00, 0.000, 0.000, 0.000, 16:06:59.166, 1556921219166
61, 0.00, -26.38, 0.00, 0.00, 0.000, 0.000, 0.000, 16:06:59.179, 1556921219179
62, 0.00, -20.85, 0.00, 0.00, 0.000, 0.000, 0.000, 16:06:59.179, 1556921219179
63, 0.00, -23.42, 0.00, 0.00, 0.000, 0.000, 0.000, 16:06:59.195, 1556921219195
64, 0.00, -30.50, 0.00, 0.00, 0.000, 0.000, 0.000, 16:06:59.195, 1556921219195
65, 0.00, -18.54, 0.00, 0.00, 0.000, 0.000, 0.000, 16:06:59.197, 1556921219197
66, 0.00, -23.62, 0.00, 0.00, 0.000, 0.000, 0.000, 16:06:59.197, 1556921219197
67, 0.00, -25.38, 0.00, 0.00, 0.000, 0.000, 0.000, 16:06:59.209, 1556921219209
68, 0.00, -25.52, 0.00, 0.00, 0.000, 0.000, 0.000, 16:06:59.209, 1556921219209
69, 0.00, -25.41, 0.00, 0.00, 0.000, 0.000, 0.000, 16:06:59.225, 1556921219225
70, 0.00, -32.32, 0.00, 0.00, 0.000, 0.000, 0.000, 16:06:59.225, 1556921219225
71, 0.00, -28.26, 0.00, 0.00, 0.000, 0.000, 0.000, 16:06:59.227, 1556921219227
72, 0.00, -17.27, 0.00, 0.00, 0.000, 0.000, 0.000, 16:06:59.227, 1556921219227
73, 0.00, -25.77, 0.00, 0.00, 0.000, 0.000, 0.000, 16:06:59.239, 1556921219239
74, 0.00, -32.60, 0.00, 0.00, 0.000, 0.000, 0.000, 16:06:59.239, 1556921219239
75, 0.00, -24.06, 0.00, 0.00, 0.000, 0.000, 0.000, 16:06:59.255, 1556921219255
76, 0.00, -30.22, 0.00, 0.00, 0.000, 0.000, 0.000, 16:06:59.255, 1556921219255
77, 0.00, -35.42, 0.00, 0.00, 0.000, 0.000, 0.000, 16:06:59.256, 1556921219256
78, 0.00, -26.56, 0.00, 0.00, 0.000, 0.000, 0.000, 16:06:59.256, 1556921219256
79, 0.00, -34.07, 0.00, 0.00, 0.000, 0.000, 0.000, 16:06:59.269, 1556921219269
80, 0.00, -57.18, 0.00, 0.00, 0.000, 0.000, 0.000, 16:06:59.269, 1556921219269
81, 0.00, -70.63, 0.00, 0.00, 0.000, 0.000, 0.000, 16:06:59.287, 1556921219287
82, 0.00, -78.24, 0.00, 0.00, 0.000, 0.000, 0.000, 16:06:59.287, 1556921219287
83, 0.00, -62.83, 0.00, 0.00, 0.000, 0.000, 0.000, 16:06:59.293, 1556921219293
84, 0.00, -53.13, 0.00, 0.00, 0.000, 0.000, 0.000, 16:06:59.293, 1556921219293
85, 0.00, -38.55, 0.00, 0.00, 0.000, 0.000, 0.000, 16:06:59.301, 1556921219301
86, 0.00, -37.83, 0.00, 0.00, 0.000, 0.000, 0.000, 16:06:59.301, 1556921219301
87, 0.00, -35.09, 0.00, 0.00, 0.000, 0.000, 0.000, 16:06:59.316, 1556921219316
88, 0.00, -16.17, 0.00, 0.00, 0.000, 0.000, 0.000, 16:06:59.316, 1556921219316
89, 0.00, 6.50, 0.00, 0.00, 0.000, 0.000, 0.000, 16:06:59.318, 1556921219318
90, 0.00, -49.54, 0.00, 0.00, 0.000, 0.000, 0.000, 16:06:59.318, 1556921219318
91, 0.00, -94.93, 0.00, 0.00, 0.000, 0.000, 0.000, 16:06:59.332, 1556921219332
92, 0.00, -112.70, 0.00, 0.00, 0.000, 0.000, 0.000, 16:06:59.332, 1556921219332
93, 0.00, -108.70, 0.00, 0.00, 0.000, 0.000, 0.000, 16:06:59.345, 1556921219345
94, 0.00, -237.56, 0.00, 0.00, 0.000, 0.000, 0.000, 16:06:59.345, 1556921219345
95, 0.00, -212.53, 0.00, 0.00, 0.000, 0.000, 0.000, 16:06:59.347, 1556921219347
96, 0.00, -193.76, 0.00, 0.00, 0.000, 0.000, 0.000, 16:06:59.347, 1556921219347
97, 0.00, -67.67, 0.00, 0.00, 0.000, 0.000, 0.000, 16:06:59.360, 1556921219360
98, 0.00, 9.77, 0.00, 0.00, 0.000, 0.000, 0.000, 16:06:59.360, 1556921219360
99, 0.00, -61.07, 0.00, 0.00, 0.000, 0.000, 0.000, 16:06:59.377, 1556921219377
100, 0.00, -68.55, 0.00, 0.00, 0.000, 0.000, 0.000, 16:06:59.377, 1556921219377
101, 0.00, -66.93, 0.00, 0.00, 0.000, 0.000, 0.000, 16:06:59.381, 1556921219381
102, 0.00, -64.31, 0.00, 0.00, 0.000, 0.000, 0.000, 16:06:59.381, 1556921219381
103, 0.00, -66.64, 0.00, 0.00, 0.000, 0.000, 0.000, 16:06:59.393, 1556921219393
104, 0.00, -68.32, 0.00, 0.00, 0.000, 0.000, 0.000, 16:06:59.393, 1556921219393
105, 0.00, -62.22, 0.00, 0.00, 0.000, 0.000, 0.000, 16:06:59.406, 1556921219406
106, 0.00, -55.62, 0.00, 0.00, 0.000, 0.000, 0.000, 16:06:59.406, 1556921219406
107, 0.00, -65.61, 0.00, 0.00, 0.000, 0.000, 0.000, 16:06:59.407, 1556921219407
108, 0.00, -55.99, 0.00, 0.00, 0.000, 0.000, 0.000, 16:06:59.407, 1556921219407
109, 0.00, -53.55, 0.00, 0.00, 0.000, 0.000, 0.000, 16:06:59.419, 1556921219419
110, 0.00, -54.40, 0.00, 0.00, 0.000, 0.000, 0.000, 16:06:59.419, 1556921219419
111, 0.00, -51.35, 0.00, 0.00, 0.000, 0.000, 0.000, 16:06:59.434, 1556921219434
112, 0.00, -36.98, 0.00, 0.00, 0.000, 0.000, 0.000, 16:06:59.435, 1556921219435
113, 0.00, -39.50, 0.00, 0.00, 0.000, 0.000, 0.000, 16:06:59.436, 1556921219436
114, 0.00, -25.52, 0.00, 0.00, 0.000, 0.000, 0.000, 16:06:59.436, 1556921219436
115, 0.00, -27.83, 0.00, 0.00, 0.000, 0.000, 0.000, 16:06:59.449, 1556921219449
116, 0.00, -17.15, 0.00, 0.00, 0.000, 0.000, 0.000, 16:06:59.449, 1556921219449
117, 0.00, -6.14, 0.00, 0.00, 0.000, 0.000, 0.000, 16:06:59.464, 1556921219464
118, 0.00, 10.78, 0.00, 0.00, 0.000, 0.000, 0.000, 16:06:59.464, 1556921219464
119, 0.00, 24.19, 0.00, 0.00, 0.000, 0.000, 0.000, 16:06:59.465, 1556921219465
120, 0.00, 27.74, 0.00, 0.00, 0.000, 0.000, 0.000, 16:06:59.465, 1556921219465
121, 0.00, 38.69, 0.00, 0.00, 0.000, 0.000, 0.000, 16:06:59.479, 1556921219479
122, 0.00, 50.14, 0.00, 0.00, 0.000, 0.000, 0.000, 16:06:59.479, 1556921219479
123, 0.00, 59.04, 0.00, 0.00, 0.000, 0.000, 0.000, 16:06:59.496, 1556921219496
124, 0.00, 61.81, 0.00, 0.00, 0.000, 0.000, 0.000, 16:06:59.496, 1556921219496
125, 0.00, 67.79, 0.00, 0.00, 0.000, 0.000, 0.000, 16:06:59.497, 1556921219497
126, 0.00, 61.80, 0.00, 0.00, 0.000, 0.000, 0.000, 16:06:59.497, 1556921219497
127, 0.00, 58.83, 0.00, 0.00, 0.000, 0.000, 0.000, 16:06:59.509, 1556921219509
128, 0.00, 55.45, 0.00, 0.00, 0.000, 0.000, 0.000, 16:06:59.509, 1556921219509
129, 0.00, 48.70, 0.00, 0.00, 0.000, 0.000, 0.000, 16:06:59.525, 1556921219525
130, 0.00, 40.50, 0.00, 0.00, 0.000, 0.000, 0.000, 16:06:59.525, 1556921219525
131, 0.00, 28.74, 0.00, 0.00, 0.000, 0.000, 0.000, 16:06:59.528, 1556921219528
132, 0.00, 23.14, 0.00, 0.00, 0.000, 0.000, 0.000, 16:06:59.528, 1556921219528
133, 0.00, 3.94, 0.00, 0.00, 0.000, 0.000, 0.000, 16:06:59.539, 1556921219539
134, 0.00, -9.09, 0.00, 0.00, 0.000, 0.000, 0.000, 16:06:59.539, 1556921219539
135, 0.00, -11.95, 0.00, 0.00, 0.000, 0.000, 0.000, 16:06:59.555, 1556921219555
136, 0.00, -30.23, 0.00, 0.00, 0.000, 0.000, 0.000, 16:06:59.555, 1556921219555
137, 0.00, -46.80, 0.00, 0.00, 0.000, 0.000, 0.000, 16:06:59.563, 1556921219563
138, 0.00, -47.50, 0.00, 0.00, 0.000, 0.000, 0.000, 16:06:59.563, 1556921219563
139, 0.00, -58.58, 0.00, 0.00, 0.000, 0.000, 0.000, 16:06:59.571, 1556921219571
140, 0.00, -68.04, 0.00, 0.00, 0.000, 0.000, 0.000, 16:06:59.571, 1556921219571
141, 0.00, -69.58, 0.00, 0.00, 0.000, 0.000, 0.000, 16:06:59.586, 1556921219586
142, 0.00, -73.76, 0.00, 0.00, 0.000, 0.000, 0.000, 16:06:59.586, 1556921219586
143, 0.00, -86.04, 0.00, 0.00, 0.000, 0.000, 0.000, 16:06:59.591, 1556921219591
144, 0.00, -96.09, 0.00, 0.00, 0.000, 0.000, 0.000, 16:06:59.591, 1556921219591
145, 0.00, -94.25, 0.00, 0.00, 0.000, 0.000, 0.000, 16:06:59.599, 1556921219599
146, 0.00, -102.72, 0.00, 0.00, 0.000, 0.000, 0.000, 16:06:59.599, 1556921219599
147, 0.00, -109.82, 0.00, 0.00, 0.000, 0.000, 0.000, 16:06:59.615, 1556921219615
148, 0.00, -107.51, 0.00, 0.00, 0.000, 0.000, 0.000, 16:06:59.615, 1556921219615
149, 0.00, -107.48, 0.00, 0.00, 0.000, 0.000, 0.000, 16:06:59.616, 1556921219616
150, 0.00, -116.66, 0.00, 0.00, 0.000, 0.000, 0.000, 16:06:59.616, 1556921219616
151, 0.00, -121.37, 0.00, 0.00, 0.000, 0.000, 0.000, 16:06:59.629, 1556921219629
152, 0.00, -122.43, 0.00, 0.00, 0.000, 0.000, 0.000, 16:06:59.629, 1556921219629
153, 0.00, -128.06, 0.00, 0.00, 0.000, 0.000, 0.000, 16:06:59.645, 1556921219645
154, 0.00, -132.63, 0.00, 0.00, 0.000, 0.000, 0.000, 16:06:59.645, 1556921219645
155, 0.00, -130.70, 0.00, 0.00, 0.000, 0.000, 0.000, 16:06:59.646, 1556921219646
156, 0.00, -128.40, 0.00, 0.00, 0.000, 0.000, 0.000, 16:06:59.646, 1556921219646
157, 0.00, -139.66, 0.00, 0.00, 0.000, 0.000, 0.000, 16:06:59.659, 1556921219659
158, 0.00, -137.81, 0.00, 0.00, 0.000, 0.000, 0.000, 16:06:59.659, 1556921219659
159, 0.00, -137.66, 0.00, 0.00, 0.000, 0.000, 0.000, 16:06:59.675, 1556921219675
160, 0.00, -143.35, 0.00, 0.00, 0.000, 0.000, 0.000, 16:06:59.675, 1556921219675
161, 0.00, -142.29, 0.00, 0.00, 0.000, 0.000, 0.000, 16:06:59.676, 1556921219676
162, 0.00, -134.77, 0.00, 0.00, 0.000, 0.000, 0.000, 16:06:59.676, 1556921219676
163, 0.00, -138.99, 0.00, 0.00, 0.000, 0.000, 0.000, 16:06:59.689, 1556921219689
164, 0.00, -140.65, 0.00, 0.00, 0.000, 0.000, 0.000, 16:06:59.689, 1556921219689
165, 0.00, -132.09, 0.00, 0.00, 0.000, 0.000, 0.000, 16:06:59.705, 1556921219705
166, 0.00, -130.78, 0.00, 0.00, 0.000, 0.000, 0.000, 16:06:59.705, 1556921219705
167, 0.00, -130.36, 0.00, 0.00, 0.000, 0.000, 0.000, 16:06:59.706, 1556921219706
168, 0.00, -129.87, 0.00, 0.00, 0.000, 0.000, 0.000, 16:06:59.706, 1556921219706
169, 0.00, -133.14, 0.00, 0.00, 0.000, 0.000, 0.000, 16:06:59.720, 1556921219720
170, 0.00, -128.08, 0.00, 0.00, 0.000, 0.000, 0.000, 16:06:59.720, 1556921219720
171, 0.00, -127.99, 0.00, 0.00, 0.000, 0.000, 0.000, 16:06:59.735, 1556921219735
172, 0.00, -126.92, 0.00, 0.00, 0.000, 0.000, 0.000, 16:06:59.735, 1556921219735
173, 0.00, -129.75, 0.00, 0.00, 0.000, 0.000, 0.000, 16:06:59.738, 1556921219738
174, 0.00, -129.99, 0.00, 0.00, 0.000, 0.000, 0.000, 16:06:59.738, 1556921219738
175, 0.00, -123.44, 0.00, 0.00, 0.000, 0.000, 0.000, 16:06:59.749, 1556921219749
176, 0.00, -124.71, 0.00, 0.00, 0.000, 0.000, 0.000, 16:06:59.749, 1556921219749
177, 0.00, -121.58, 0.00, 0.00, 0.000, 0.000, 0.000, 16:06:59.767, 1556921219767
178, 0.00, -115.77, 0.00, 0.00, 0.000, 0.000, 0.000, 16:06:59.767, 1556921219767
179, 0.00, -118.34, 0.00, 0.00, 0.000, 0.000, 0.000, 16:06:59.768, 1556921219768
180, 0.00, -122.01, 0.00, 0.00, 0.000, 0.000, 0.000, 16:06:59.768, 1556921219768
181, 0.00, -124.30, 0.00, 0.00, 0.000, 0.000, 0.000, 16:06:59.780, 1556921219780
182, 0.00, -116.32, 0.00, 0.00, 0.000, 0.000, 0.000, 16:06:59.780, 1556921219780
183, 0.00, -119.11, 0.00, 0.00, 0.000, 0.000, 0.000, 16:06:59.795, 1556921219795
184, 0.00, -125.45, 0.00, 0.00, 0.000, 0.000, 0.000, 16:06:59.795, 1556921219795
185, 0.00, -115.75, 0.00, 0.00, 0.000, 0.000, 0.000, 16:06:59.796, 1556921219796
186, 0.00, -116.58, 0.00, 0.00, 0.000, 0.000, 0.000, 16:06:59.796, 1556921219796
187, 0.00, -118.58, 0.00, 0.00, 0.000, 0.000, 0.000, 16:06:59.809, 1556921219809
188, 0.00, -110.05, 0.00, 0.00, 0.000, 0.000, 0.000, 16:06:59.809, 1556921219809
189, 0.00, -111.64, 0.00, 0.00, 0.000, 0.000, 0.000, 16:06:59.825, 1556921219825
190, 0.00, -115.12, 0.00, 0.00, 0.000, 0.000, 0.000, 16:06:59.825, 1556921219825
191, 0.00, -114.37, 0.00, 0.00, 0.000, 0.000, 0.000, 16:06:59.828, 1556921219828
192, 0.00, -105.19, 0.00, 0.00, 0.000, 0.000, 0.000, 16:06:59.828, 1556921219828
193, 0.00, -108.02, 0.00, 0.00, 0.000, 0.000, 0.000, 16:06:59.839, 1556921219839
194, 0.00, -109.26, 0.00, 0.00, 0.000, 0.000, 0.000, 16:06:59.839, 1556921219839
195, 0.00, -101.64, 0.00, 0.00, 0.000, 0.000, 0.000, 16:06:59.856, 1556921219856
196, 0.00, -103.57, 0.00, 0.00, 0.000, 0.000, 0.000, 16:06:59.856, 1556921219856
197, 0.00, -108.50, 0.00, 0.00, 0.000, 0.000, 0.000, 16:06:59.861, 1556921219861
198, 0.00, -102.02, 0.00, 0.00, 0.000, 0.000, 0.000, 16:06:59.861, 1556921219861
199, 0.00, -99.34, 0.00, 0.00, 0.000, 0.000, 0.000, 16:06:59.874, 1556921219874
200, 0.00, -93.19, 0.00, 0.00, 0.000, 0.000, 0.000, 16:06:59.874, 1556921219874
0, 0.00, -92.76, 0.00, 0.00, 0.000, 0.000, 0.000, 16:06:59.878, 1556921219878
1, 0.00, -89.65, 0.00, 0.00, 0.000, 0.000, 0.000, 16:06:59.884, 1556921219884
2, 0.00, -85.19, 0.00, 0.00, 0.000, 0.000, 0.000, 16:06:59.884, 1556921219884
3, 0.00, -86.07, 0.00, 0.00, 0.000, 0.000, 0.000, 16:06:59.901, 1556921219901
4, 0.00, -76.99, 0.00, 0.00, 0.000, 0.000, 0.000, 16:06:59.901, 1556921219901
5, 0.00, -75.30, 0.00, 0.00, 0.000, 0.000, 0.000, 16:06:59.907, 1556921219907
6, 0.00, -70.44, 0.00, 0.00, 0.000, 0.000, 0.000, 16:06:59.907, 1556921219907
7, 0.00, -67.65, 0.00, 0.00, 0.000, 0.000, 0.000, 16:06:59.914, 1556921219914
8, 0.00, -69.40, 0.00, 0.00, 0.000, 0.000, 0.000, 16:06:59.914, 1556921219914
9, 0.00, -67.47, 0.00, 0.00, 0.000, 0.000, 0.000, 16:06:59.930, 1556921219930
10, 0.00, -61.32, 0.00, 0.00, 0.000, 0.000, 0.000, 16:06:59.930, 1556921219930
11, 0.00, -52.69, 0.00, 0.00, 0.000, 0.000, 0.000, 16:06:59.932, 1556921219932
12, 0.00, -53.08, 0.00, 0.00, 0.000, 0.000, 0.000, 16:06:59.932, 1556921219932
13, 0.00, -56.32, 0.00, 0.00, 0.000, 0.000, 0.000, 16:06:59.945, 1556921219945
14, 0.00, -59.46, 0.00, 0.00, 0.000, 0.000, 0.000, 16:06:59.945, 1556921219945
15, 0.00, -56.30, 0.00, 0.00, 0.000, 0.000, 0.000, 16:06:59.961, 1556921219961
16, 0.00, -62.13, 0.00, 0.00, 0.000, 0.000, 0.000, 16:06:59.961, 1556921219961
17, 0.00, -45.72, 0.00, 0.00, 0.000, 0.000, 0.000, 16:06:59.967, 1556921219967
18, 0.00, -35.31, 0.00, 0.00, 0.000, 0.000, 0.000, 16:06:59.967, 1556921219967
19, 0.00, -36.40, 0.00, 0.00, 0.000, 0.000, 0.000, 16:06:59.978, 1556921219978
20, 0.00, -31.30, 0.00, 0.00, 0.000, 0.000, 0.000, 16:06:59.978, 1556921219978
21, 0.00, -24.69, 0.00, 0.00, 0.000, 0.000, 0.000, 16:06:59.990, 1556921219990
22, 0.00, -23.98, 0.00, 0.00, 0.000, 0.000, 0.000, 16:06:59.990, 1556921219990
23, 0.00, -13.70, 0.00, 0.00, 0.000, 0.000, 0.000, 16:06:59.991, 1556921219991
24, 0.00, -1.80, 0.00, 0.00, 0.000, 0.000, 0.000, 16:06:59.991, 1556921219991
25, 0.00, 7.62, 0.00, 0.00, 0.000, 0.000, 0.000, 16:07:00.005, 1556921220005
26, 0.00, 20.46, 0.00, 0.00, 0.000, 0.000, 0.000, 16:07:00.005, 1556921220005
27, 0.00, 30.22, 0.00, 0.00, 0.000, 0.000, 0.000, 16:07:00.020, 1556921220020
28, 0.00, 39.15, 0.00, 0.00, 0.000, 0.000, 0.000, 16:07:00.020, 1556921220020
29, 0.00, 38.94, 0.00, 0.00, 0.000, 0.000, 0.000, 16:07:00.023, 1556921220023
30, 0.00, 44.90, 0.00, 0.00, 0.000, 0.000, 0.000, 16:07:00.023, 1556921220023
31, 0.00, 52.02, 0.00, 0.00, 0.000, 0.000, 0.000, 16:07:00.034, 1556921220034
32, 0.00, 60.21, 0.00, 0.00, 0.000, 0.000, 0.000, 16:07:00.034, 1556921220034
33, 0.00, 65.33, 0.00, 0.00, 0.000, 0.000, 0.000, 16:07:00.051, 1556921220051
34, 0.00, 77.21, 0.00, 0.00, 0.000, 0.000, 0.000, 16:07:00.051, 1556921220051
35, 0.00, 83.24, 0.00, 0.00, 0.000, 0.000, 0.000, 16:07:00.056, 1556921220056
36, 0.00, 87.77, 0.00, 0.00, 0.000, 0.000, 0.000, 16:07:00.056, 1556921220056
37, 0.00, 89.06, 0.00, 0.00, 0.000, 0.000, 0.000, 16:07:00.064, 1556921220064
38, 0.00, 89.39, 0.00, 0.00, 0.000, 0.000, 0.000, 16:07:00.064, 1556921220064
39, 0.00, 88.56, 0.00, 0.00, 0.000, 0.000, 0.000, 16:07:00.080, 1556921220080
40, 0.00, 98.52, 0.00, 0.00, 0.000, 0.000, 0.000, 16:07:00.080, 1556921220080
41, 0.00, 100.09, 0.00, 0.00, 0.000, 0.000, 0.000, 16:07:00.082, 1556921220082
42, 0.00, 98.97, 0.00, 0.00, 0.000, 0.000, 0.000, 16:07:00.082, 1556921220082
43, 0.00, 97.65, 0.00, 0.00, 0.000, 0.000, 0.000, 16:07:00.094, 1556921220094
44, 0.00, 96.30, 0.00, 0.00, 0.000, 0.000, 0.000, 16:07:00.094, 1556921220094
45, 0.00, 90.15, 0.00, 0.00, 0.000, 0.000, 0.000, 16:07:00.110, 1556921220110
46, 0.00, 84.20, 0.00, 0.00, 0.000, 0.000, 0.000, 16:07:00.110, 1556921220110
47, 0.00, 91.78, 0.00, 0.00, 0.000, 0.000, 0.000, 16:07:00.111, 1556921220111
48, 0.00, 80.57, 0.00, 0.00, 0.000, 0.000, 0.000, 16:07:00.111, 1556921220111
49, 0.00, 84.19, 0.00, 0.00, 0.000, 0.000, 0.000, 16:07:00.125, 1556921220125
50, 0.00, 86.53, 0.00, 0.00, 0.000, 0.000, 0.000, 16:07:00.125, 1556921220125
51, 0.00, 77.09, 0.00, 0.00, 0.000, 0.000, 0.000, 16:07:00.140, 1556921220140
52, 0.00, 82.86, 0.00, 0.00, 0.000, 0.000, 0.000, 16:07:00.140, 1556921220140
53, 0.00, 80.80, 0.00, 0.00, 0.000, 0.000, 0.000, 16:07:00.141, 1556921220141
54, 0.00, 80.45, 0.00, 0.00, 0.000, 0.000, 0.000, 16:07:00.141, 1556921220141
55, 0.00, 81.67, 0.00, 0.00, 0.000, 0.000, 0.000, 16:07:00.154, 1556921220154
56, 0.00, 74.33, 0.00, 0.00, 0.000, 0.000, 0.000, 16:07:00.154, 1556921220154
57, 0.00, 75.83, 0.00, 0.00, 0.000, 0.000, 0.000, 16:07:00.170, 1556921220170
58, 0.00, 72.43, 0.00, 0.00, 0.000, 0.000, 0.000, 16:07:00.170, 1556921220170
59, 0.00, 69.98, 0.00, 0.00, 0.000, 0.000, 0.000, 16:07:00.172, 1556921220172
60, 0.00, 69.36, 0.00, 0.00, 0.000, 0.000, 0.000, 16:07:00.172, 1556921220172
61, 0.00, 71.14, 0.00, 0.00, 0.000, 0.000, 0.000, 16:07:00.184, 1556921220184
62, 0.00, 69.34, 0.00, 0.00, 0.000, 0.000, 0.000, 16:07:00.184, 1556921220184
63, 0.00, 66.13, 0.00, 0.00, 0.000, 0.000, 0.000, 16:07:00.201, 1556921220201
64, 0.00, 69.32, 0.00, 0.00, 0.000, 0.000, 0.000, 16:07:00.201, 1556921220201
65, 0.00, 70.40, 0.00, 0.00, 0.000, 0.000, 0.000, 16:07:00.202, 1556921220202
66, 0.00, 65.86, 0.00, 0.00, 0.000, 0.000, 0.000, 16:07:00.202, 1556921220202
67, 0.00, 74.23, 0.00, 0.00, 0.000, 0.000, 0.000, 16:07:00.216, 1556921220216
68, 0.00, 68.94, 0.00, 0.00, 0.000, 0.000, 0.000, 16:07:00.216, 1556921220216
69, 0.00, 66.82, 0.00, 0.00, 0.000, 0.000, 0.000, 16:07:00.231, 1556921220231
70, 0.00, 70.33, 0.00, 0.00, 0.000, 0.000, 0.000, 16:07:00.231, 1556921220231
71, 0.00, 68.22, 0.00, 0.00, 0.000, 0.000, 0.000, 16:07:00.236, 1556921220236
72, 0.00, 64.16, 0.00, 0.00, 0.000, 0.000, 0.000, 16:07:00.236, 1556921220236
73, 0.00, 58.01, 0.00, 0.00, 0.000, 0.000, 0.000, 16:07:00.246, 1556921220246
74, 0.00, 74.30, 0.00, 0.00, 0.000, 0.000, 0.000, 16:07:00.246, 1556921220246
75, 0.00, 74.98, 0.00, 0.00, 0.000, 0.000, 0.000, 16:07:00.263, 1556921220263
76, 0.00, 72.28, 0.00, 0.00, 0.000, 0.000, 0.000, 16:07:00.263, 1556921220263
77, 0.00, 76.20, 0.00, 0.00, 0.000, 0.000, 0.000, 16:07:00.267, 1556921220267
78, 0.00, 62.08, 0.00, 0.00, 0.000, 0.000, 0.000, 16:07:00.267, 1556921220267
79, 0.00, 60.73, 0.00, 0.00, 0.000, 0.000, 0.000, 16:07:00.278, 1556921220278
80, 0.00, 72.28, 0.00, 0.00, 0.000, 0.000, 0.000, 16:07:00.278, 1556921220278
81, 0.00, 74.46, 0.00, 0.00, 0.000, 0.000, 0.000, 16:07:00.291, 1556921220291
82, 0.00, 70.70, 0.00, 0.00, 0.000, 0.000, 0.000, 16:07:00.291, 1556921220291
83, 0.00, 74.01, 0.00, 0.00, 0.000, 0.000, 0.000, 16:07:00.292, 1556921220292
84, 0.00, 84.15, 0.00, 0.00, 0.000, 0.000, 0.000, 16:07:00.292, 1556921220292
85, 0.00, 78.82, 0.00, 0.00, 0.000, 0.000, 0.000, 16:07:00.306, 1556921220306
86, 0.00, 69.64, 0.00, 0.00, 0.000, 0.000, 0.000, 16:07:00.306, 1556921220306
87, 0.00, 68.51, 0.00, 0.00, 0.000, 0.000, 0.000, 16:07:00.320, 1556921220320
88, 0.00, 67.28, 0.00, 0.00, 0.000, 0.000, 0.000, 16:07:00.320, 1556921220320
89, 0.00, 63.58, 0.00, 0.00, 0.000, 0.000, 0.000, 16:07:00.324, 1556921220324
90, 0.00, 65.87, 0.00, 0.00, 0.000, 0.000, 0.000, 16:07:00.324, 1556921220324
91, 0.00, 62.18, 0.00, 0.00, 0.000, 0.000, 0.000, 16:07:00.336, 1556921220336
92, 0.00, 64.70, 0.00, 0.00, 0.000, 0.000, 0.000, 16:07:00.336, 1556921220336
93, 0.00, 64.74, 0.00, 0.00, 0.000, 0.000, 0.000, 16:07:00.350, 1556921220350
94, 0.00, 67.53, 0.00, 0.00, 0.000, 0.000, 0.000, 16:07:00.350, 1556921220350
95, 0.00, 62.46, 0.00, 0.00, 0.000, 0.000, 0.000, 16:07:00.352, 1556921220352
96, 0.00, 46.35, 0.00, 0.00, 0.000, 0.000, 0.000, 16:07:00.352, 1556921220352
97, 0.00, 50.84, 0.00, 0.00, 0.000, 0.000, 0.000, 16:07:00.371, 1556921220371
98, 0.00, 49.16, 0.00, 0.00, 0.000, 0.000, 0.000, 16:07:00.371, 1556921220371
99, 0.00, 48.85, 0.00, 0.00, 0.000, 0.000, 0.000, 16:07:00.379, 1556921220379
100, 0.00, 51.21, 0.00, 0.00, 0.000, 0.000, 0.000, 16:07:00.379, 1556921220379
101, 0.00, 52.58, 0.00, 0.00, 0.000, 0.000, 0.000, 16:07:00.381, 1556921220381
102, 0.00, 47.11, 0.00, 0.00, 0.000, 0.000, 0.000, 16:07:00.381, 1556921220381
103, 0.00, 44.60, 0.00, 0.00, 0.000, 0.000, 0.000, 16:07:00.394, 1556921220394
104, 0.00, 48.06, 0.00, 0.00, 0.000, 0.000, 0.000, 16:07:00.394, 1556921220394
105, 0.00, 44.14, 0.00, 0.00, 0.000, 0.000, 0.000, 16:07:00.411, 1556921220411
106, 0.00, 41.26, 0.00, 0.00, 0.000, 0.000, 0.000, 16:07:00.411, 1556921220411
107, 0.00, 43.36, 0.00, 0.00, 0.000, 0.000, 0.000, 16:07:00.413, 1556921220413
108, 0.00, 35.56, 0.00, 0.00, 0.000, 0.000, 0.000, 16:07:00.413, 1556921220413
109, 0.00, 32.07, 0.00, 0.00, 0.000, 0.000, 0.000, 16:07:00.425, 1556921220425
110, 0.00, 33.94, 0.00, 0.00, 0.000, 0.000, 0.000, 16:07:00.425, 1556921220425
111, 0.00, 42.63, 0.00, 0.00, 0.000, 0.000, 0.000, 16:07:00.450, 1556921220450
112, 0.00, 30.99, 0.00, 0.00, 0.000, 0.000, 0.000, 16:07:00.450, 1556921220450
113, 0.00, 30.18, 0.00, 0.00, 0.000, 0.000, 0.000, 16:07:00.451, 1556921220451
114, 0.00, 27.60, 0.00, 0.00, 0.000, 0.000, 0.000, 16:07:00.451, 1556921220451
115, 0.00, 26.50, 0.00, 0.00, 0.000, 0.000, 0.000, 16:07:00.455, 1556921220455
116, 0.00, 24.42, 0.00, 0.00, 0.000, 0.000, 0.000, 16:07:00.455, 1556921220455
117, 0.00, 27.75, 0.00, 0.00, 0.000, 0.000, 0.000, 16:07:00.472, 1556921220472
118, 0.00, 23.86, 0.00, 0.00, 0.000, 0.000, 0.000, 16:07:00.472, 1556921220472
119, 0.00, 27.63, 0.00, 0.00, 0.000, 0.000, 0.000, 16:07:00.480, 1556921220480
120, 0.00, 31.74, 0.00, 0.00, 0.000, 0.000, 0.000, 16:07:00.480, 1556921220480
121, 0.00, 23.78, 0.00, 0.00, 0.000, 0.000, 0.000, 16:07:00.485, 1556921220485
122, 0.00, 20.06, 0.00, 0.00, 0.000, 0.000, 0.000, 16:07:00.485, 1556921220485
123, 0.00, 19.48, 0.00, 0.00, 0.000, 0.000, 0.000, 16:07:00.500, 1556921220500
124, 0.00, 22.24, 0.00, 0.00, 0.000, 0.000, 0.000, 16:07:00.500, 1556921220500
125, 0.00, 28.02, 0.00, 0.00, 0.000, 0.000, 0.000, 16:07:00.500, 1556921220500
126, 0.00, 25.18, 0.00, 0.00, 0.000, 0.000, 0.000, 16:07:00.500, 1556921220500
127, 0.00, 29.22, 0.00, 0.00, 0.000, 0.000, 0.000, 16:07:00.517, 1556921220517
128, 0.00, 24.36, 0.00, 0.00, 0.000, 0.000, 0.000, 16:07:00.517, 1556921220517
129, 0.00, 22.14, 0.00, 0.00, 0.000, 0.000, 0.000, 16:07:00.531, 1556921220531
130, 0.00, 24.81, 0.00, 0.00, 0.000, 0.000, 0.000, 16:07:00.531, 1556921220531
131, 0.00, 28.31, 0.00, 0.00, 0.000, 0.000, 0.000, 16:07:00.535, 1556921220535
132, 0.00, 25.12, 0.00, 0.00, 0.000, 0.000, 0.000, 16:07:00.535, 1556921220535
133, 0.00, 29.73, 0.00, 0.00, 0.000, 0.000, 0.000, 16:07:00.545, 1556921220545
134, 0.00, 34.95, 0.00, 0.00, 0.000, 0.000, 0.000, 16:07:00.545, 1556921220545
135, 0.00, 25.05, 0.00, 0.00, 0.000, 0.000, 0.000, 16:07:00.560, 1556921220560
136, 0.00, 22.39, 0.00, 0.00, 0.000, 0.000, 0.000, 16:07:00.560, 1556921220560
137, 0.00, 21.55, 0.00, 0.00, 0.000, 0.000, 0.000, 16:07:00.560, 1556921220560
138, 0.00, 16.41, 0.00, 0.00, 0.000, 0.000, 0.000, 16:07:00.560, 1556921220560
139, 0.00, 18.31, 0.00, 0.00, 0.000, 0.000, 0.000, 16:07:00.577, 1556921220577
140, 0.00, 16.29, 0.00, 0.00, 0.000, 0.000, 0.000, 16:07:00.577, 1556921220577
141, 0.00, 15.07, 0.00, 0.00, 0.000, 0.000, 0.000, 16:07:00.592, 1556921220592
142, 0.00, 14.77, 0.00, 0.00, 0.000, 0.000, 0.000, 16:07:00.592, 1556921220592
143, 0.00, 12.25, 0.00, 0.00, 0.000, 0.000, 0.000, 16:07:00.592, 1556921220592
144, 0.00, 18.12, 0.00, 0.00, 0.000, 0.000, 0.000, 16:07:00.592, 1556921220592
145, 0.00, 12.18, 0.00, 0.00, 0.000, 0.000, 0.000, 16:07:00.605, 1556921220605
146, 0.00, 10.27, 0.00, 0.00, 0.000, 0.000, 0.000, 16:07:00.605, 1556921220605
147, 0.00, 14.05, 0.00, 0.00, 0.000, 0.000, 0.000, 16:07:00.622, 1556921220622
148, 0.00, 11.69, 0.00, 0.00, 0.000, 0.000, 0.000, 16:07:00.622, 1556921220622
149, 0.00, 11.04, 0.00, 0.00, 0.000, 0.000, 0.000, 16:07:00.627, 1556921220627
150, 0.00, 11.06, 0.00, 0.00, 0.000, 0.000, 0.000, 16:07:00.627, 1556921220627
151, 0.00, 6.12, 0.00, 0.00, 0.000, 0.000, 0.000, 16:07:00.634, 1556921220634
152, 0.00, 5.72, 0.00, 0.00, 0.000, 0.000, 0.000, 16:07:00.634, 1556921220634
153, 0.00, 8.01, 0.00, 0.00, 0.000, 0.000, 0.000, 16:07:00.651, 1556921220651
154, 0.00, 16.14, 0.00, 0.00, 0.000, 0.000, 0.000, 16:07:00.651, 1556921220651
155, 0.00, 10.68, 0.00, 0.00, 0.000, 0.000, 0.000, 16:07:00.655, 1556921220655
156, 0.00, 9.33, 0.00, 0.00, 0.000, 0.000, 0.000, 16:07:00.655, 1556921220655
157, 0.00, 15.84, 0.00, 0.00, 0.000, 0.000, 0.000, 16:07:00.664, 1556921220664
158, 0.00, 12.95, 0.00, 0.00, 0.000, 0.000, 0.000, 16:07:00.664, 1556921220664
159, 0.00, 8.02, 0.00, 0.00, 0.000, 0.000, 0.000, 16:07:00.681, 1556921220681
160, 0.00, 10.21, 0.00, 0.00, 0.000, 0.000, 0.000, 16:07:00.681, 1556921220681
161, 0.00, 13.71, 0.00, 0.00, 0.000, 0.000, 0.000, 16:07:00.685, 1556921220685
162, 0.00, 11.31, 0.00, 0.00, 0.000, 0.000, 0.000, 16:07:00.685, 1556921220685
163, 0.00, 8.36, 0.00, 0.00, 0.000, 0.000, 0.000, 16:07:00.695, 1556921220695
164, 0.00, 9.95, 0.00, 0.00, 0.000, 0.000, 0.000, 16:07:00.695, 1556921220695
165, 0.00, 5.33, 0.00, 0.00, 0.000, 0.000, 0.000, 16:07:00.710, 1556921220710
166, 0.00, 7.50, 0.00, 0.00, 0.000, 0.000, 0.000, 16:07:00.710, 1556921220710
167, 0.00, 0.24, 0.00, 0.00, 0.000, 0.000, 0.000, 16:07:00.714, 1556921220714
168, 0.00, 12.73, 0.00, 0.00, 0.000, 0.000, 0.000, 16:07:00.714, 1556921220714
169, 0.00, 6.60, 0.00, 0.00, 0.000, 0.000, 0.000, 16:07:00.724, 1556921220724
170, 0.00, 7.36, 0.00, 0.00, 0.000, 0.000, 0.000, 16:07:00.724, 1556921220724
171, 0.00, 5.94, 0.00, 0.00, 0.000, 0.000, 0.000, 16:07:00.740, 1556921220740
172, 0.00, 5.13, 0.00, 0.00, 0.000, 0.000, 0.000, 16:07:00.740, 1556921220740
173, 0.00, -1.05, 0.00, 0.00, 0.000, 0.000, 0.000, 16:07:00.741, 1556921220741
174, 0.00, 0.45, 0.00, 0.00, 0.000, 0.000, 0.000, 16:07:00.741, 1556921220741
175, 0.00, -5.22, 0.00, 0.00, 0.000, 0.000, 0.000, 16:07:00.754, 1556921220754
176, 0.00, -1.21, 0.00, 0.00, 0.000, 0.000, 0.000, 16:07:00.754, 1556921220754
177, 0.00, -4.53, 0.00, 0.00, 0.000, 0.000, 0.000, 16:07:00.770, 1556921220770
178, 0.00, -5.79, 0.00, 0.00, 0.000, 0.000, 0.000, 16:07:00.770, 1556921220770
179, 0.00, -7.26, 0.00, 0.00, 0.000, 0.000, 0.000, 16:07:00.773, 1556921220773
180, 0.00, -4.08, 0.00, 0.00, 0.000, 0.000, 0.000, 16:07:00.773, 1556921220773
181, 0.00, -6.33, 0.00, 0.00, 0.000, 0.000, 0.000, 16:07:00.784, 1556921220784
182, 0.00, -3.35, 0.00, 0.00, 0.000, 0.000, 0.000, 16:07:00.784, 1556921220784
183, 0.00, -6.21, 0.00, 0.00, 0.000, 0.000, 0.000, 16:07:00.800, 1556921220800
184, 0.00, -6.96, 0.00, 0.00, 0.000, 0.000, 0.000, 16:07:00.800, 1556921220800
185, 0.00, -6.04, 0.00, 0.00, 0.000, 0.000, 0.000, 16:07:00.801, 1556921220801
186, 0.00, -6.84, 0.00, 0.00, 0.000, 0.000, 0.000, 16:07:00.801, 1556921220801
187, 0.00, -6.71, 0.00, 0.00, 0.000, 0.000, 0.000, 16:07:00.814, 1556921220814
188, 0.00, -3.78, 0.00, 0.00, 0.000, 0.000, 0.000, 16:07:00.814, 1556921220814
189, 0.00, -5.27, 0.00, 0.00, 0.000, 0.000, 0.000, 16:07:00.831, 1556921220831
190, 0.00, -5.62, 0.00, 0.00, 0.000, 0.000, 0.000, 16:07:00.831, 1556921220831
191, 0.00, 3.45, 0.00, 0.00, 0.000, 0.000, 0.000, 16:07:00.834, 1556921220834
192, 0.00, -3.66, 0.00, 0.00, 0.000, 0.000, 0.000, 16:07:00.834, 1556921220834
193, 0.00, -12.13, 0.00, 0.00, 0.000, 0.000, 0.000, 16:07:00.845, 1556921220845
194, 0.00, -8.30, 0.00, 0.00, 0.000, 0.000, 0.000, 16:07:00.845, 1556921220845
195, 0.00, -8.05, 0.00, 0.00, 0.000, 0.000, 0.000, 16:07:00.860, 1556921220860
196, 0.00, -6.11, 0.00, 0.00, 0.000, 0.000, 0.000, 16:07:00.860, 1556921220860
197, 0.00, -12.08, 0.00, 0.00, 0.000, 0.000, 0.000, 16:07:00.861, 1556921220861
198, 0.00, -5.45, 0.00, 0.00, 0.000, 0.000, 0.000, 16:07:00.861, 1556921220861
199, 0.00, -9.40, 0.00, 0.00, 0.000, 0.000, 0.000, 16:07:00.875, 1556921220875
200, 0.00, -10.10, 0.00, 0.00, 0.000, 0.000, 0.000, 16:07:00.875, 1556921220875
0, 0.00, -8.55, 0.00, 0.00, 0.000, 0.000, 0.000, 16:07:00.876, 1556921220876
1, 0.00, -6.56, 0.00, 0.00, 0.000, 0.000, 0.000, 16:07:00.890, 1556921220890
2, 0.00, -11.94, 0.00, 0.00, 0.000, 0.000, 0.000, 16:07:00.890, 1556921220890
3, 0.00, -16.04, 0.00, 0.00, 0.000, 0.000, 0.000, 16:07:00.905, 1556921220905
4, 0.00, -9.60, 0.00, 0.00, 0.000, 0.000, 0.000, 16:07:00.905, 1556921220905
5, 0.00, -12.02, 0.00, 0.00, 0.000, 0.000, 0.000, 16:07:00.906, 1556921220906
6, 0.00, -2.35, 0.00, 0.00, 0.000, 0.000, 0.000, 16:07:00.906, 1556921220906
7, 0.00, -5.03, 0.00, 0.00, 0.000, 0.000, 0.000, 16:07:00.920, 1556921220920
8, 0.00, -9.51, 0.00, 0.00, 0.000, 0.000, 0.000, 16:07:00.920, 1556921220920
9, 0.00, -6.46, 0.00, 0.00, 0.000, 0.000, 0.000, 16:07:00.936, 1556921220936
10, 0.00, -5.23, 0.00, 0.00, 0.000, 0.000, 0.000, 16:07:00.936, 1556921220936
11, 0.00, -8.70, 0.00, 0.00, 0.000, 0.000, 0.000, 16:07:00.942, 1556921220942
12, 0.00, -7.11, 0.00, 0.00, 0.000, 0.000, 0.000, 16:07:00.942, 1556921220942
13, 0.00, -3.46, 0.00, 0.00, 0.000, 0.000, 0.000, 16:07:00.951, 1556921220951
14, 0.00, -1.26, 0.00, 0.00, 0.000, 0.000, 0.000, 16:07:00.951, 1556921220951
15, 0.00, -7.18, 0.00, 0.00, 0.000, 0.000, 0.000, 16:07:00.967, 1556921220967
16, 0.00, -5.36, 0.00, 0.00, 0.000, 0.000, 0.000, 16:07:00.967, 1556921220967
17, 0.00, -0.26, 0.00, 0.00, 0.000, 0.000, 0.000, 16:07:00.970, 1556921220970
18, 0.00, -5.83, 0.00, 0.00, 0.000, 0.000, 0.000, 16:07:00.970, 1556921220970
19, 0.00, -2.83, 0.00, 0.00, 0.000, 0.000, 0.000, 16:07:00.980, 1556921220980
20, 0.00, 3.47, 0.00, 0.00, 0.000, 0.000, 0.000, 16:07:00.980, 1556921220980
21, 0.00, -4.32, 0.00, 0.00, 0.000, 0.000, 0.000, 16:07:00.995, 1556921220995
22, 0.00, -2.84, 0.00, 0.00, 0.000, 0.000, 0.000, 16:07:00.995, 1556921220995
23, 0.00, -0.04, 0.00, 0.00, 0.000, 0.000, 0.000, 16:07:00.997, 1556921220997
24, 0.00, -1.68, 0.00, 0.00, 0.000, 0.000, 0.000, 16:07:00.997, 1556921220997
25, 0.00, -3.36, 0.00, 0.00, 0.000, 0.000, 0.000, 16:07:01.009, 1556921221009
26, 0.00, 3.59, 0.00, 0.00, 0.000, 0.000, 0.000, 16:07:01.009, 1556921221009
27, 0.00, -1.39, 0.00, 0.00, 0.000, 0.000, 0.000, 16:07:01.027, 1556921221027
28, 0.00, -13.51, 0.00, 0.00, 0.000, 0.000, 0.000, 16:07:01.027, 1556921221027
29, 0.00, -7.22, 0.00, 0.00, 0.000, 0.000, 0.000, 16:07:01.031, 1556921221031
30, 0.00, -6.34, 0.00, 0.00, 0.000, 0.000, 0.000, 16:07:01.031, 1556921221031
31, 0.00, -12.66, 0.00, 0.00, 0.000, 0.000, 0.000, 16:07:01.041, 1556921221041
32, 0.00, -6.52, 0.00, 0.00, 0.000, 0.000, 0.000, 16:07:01.042, 1556921221042
33, 0.00, -3.75, 0.00, 0.00, 0.000, 0.000, 0.000, 16:07:01.056, 1556921221056
34, 0.00, -10.97, 0.00, 0.00, 0.000, 0.000, 0.000, 16:07:01.056, 1556921221056
35, 0.00, -14.02, 0.00, 0.00, 0.000, 0.000, 0.000, 16:07:01.058, 1556921221058
36, 0.00, -12.65, 0.00, 0.00, 0.000, 0.000, 0.000, 16:07:01.058, 1556921221058
37, 0.00, -15.78, 0.00, 0.00, 0.000, 0.000, 0.000, 16:07:01.072, 1556921221072
38, 0.00, -17.17, 0.00, 0.00, 0.000, 0.000, 0.000, 16:07:01.072, 1556921221072
39, 0.00, -10.30, 0.00, 0.00, 0.000, 0.000, 0.000, 16:07:01.088, 1556921221088
40, 0.00, -13.36, 0.00, 0.00, 0.000, 0.000, 0.000, 16:07:01.088, 1556921221088
41, 0.00, -9.32, 0.00, 0.00, 0.000, 0.000, 0.000, 16:07:01.092, 1556921221092
42, 0.00, -21.33, 0.00, 0.00, 0.000, 0.000, 0.000, 16:07:01.092, 1556921221092
43, 0.00, -19.14, 0.00, 0.00, 0.000, 0.000, 0.000, 16:07:01.100, 1556921221100
44, 0.00, -21.28, 0.00, 0.00, 0.000, 0.000, 0.000, 16:07:01.100, 1556921221100
45, 0.00, -18.58, 0.00, 0.00, 0.000, 0.000, 0.000, 16:07:01.115, 1556921221115
46, 0.00, -18.62, 0.00, 0.00, 0.000, 0.000, 0.000, 16:07:01.115, 1556921221115
47, 0.00, -21.85, 0.00, 0.00, 0.000, 0.000, 0.000, 16:07:01.117, 1556921221117
48, 0.00, -20.51, 0.00, 0.00, 0.000, 0.000, 0.000, 16:07:01.117, 1556921221117
49, 0.00, -21.42, 0.00, 0.00, 0.000, 0.000, 0.000, 16:07:01.129, 1556921221129
50, 0.00, -19.11, 0.00, 0.00, 0.000, 0.000, 0.000, 16:07:01.129, 1556921221129
51, 0.00, -17.71, 0.00, 0.00, 0.000, 0.000, 0.000, 16:07:01.146, 1556921221146
52, 0.00, -18.59, 0.00, 0.00, 0.000, 0.000, 0.000, 16:07:01.146, 1556921221146
53, 0.00, -26.29, 0.00, 0.00, 0.000, 0.000, 0.000, 16:07:01.149, 1556921221149
54, 0.00, -21.56, 0.00, 0.00, 0.000, 0.000, 0.000, 16:07:01.149, 1556921221149
55, 0.00, -16.80, 0.00, 0.00, 0.000, 0.000, 0.000, 16:07:01.166, 1556921221166
56, 0.00, -20.65, 0.00, 0.00, 0.000, 0.000, 0.000, 16:07:01.166, 1556921221166
57, 0.00, -17.14, 0.00, 0.00, 0.000, 0.000, 0.000, 16:07:01.176, 1556921221176
58, 0.00, -16.55, 0.00, 0.00, 0.000, 0.000, 0.000, 16:07:01.176, 1556921221176
59, 0.00, -12.43, 0.00, 0.00, 0.000, 0.000, 0.000, 16:07:01.178, 1556921221178
60, 0.00, -15.74, 0.00, 0.00, 0.000, 0.000, 0.000, 16:07:01.178, 1556921221178
61, 0.00, -26.21, 0.00, 0.00, 0.000, 0.000, 0.000, 16:07:01.190, 1556921221190
62, 0.00, -25.69, 0.00, 0.00, 0.000, 0.000, 0.000, 16:07:01.190, 1556921221190
63, 0.00, -25.75, 0.00, 0.00, 0.000, 0.000, 0.000, 16:07:01.222, 1556921221222
64, 0.00, -23.54, 0.00, 0.00, 0.000, 0.000, 0.000, 16:07:01.222, 1556921221222
65, 0.00, -21.50, 0.00, 0.00, 0.000, 0.000, 0.000, 16:07:01.226, 1556921221226
66, 0.00, -14.19, 0.00, 0.00, 0.000, 0.000, 0.000, 16:07:01.226, 1556921221226
67, 0.00, -16.33, 0.00, 0.00, 0.000, 0.000, 0.000, 16:07:01.226, 1556921221226
68, 0.00, -17.08, 0.00, 0.00, 0.000, 0.000, 0.000, 16:07:01.226, 1556921221226
69, 0.00, -8.72, 0.00, 0.00, 0.000, 0.000, 0.000, 16:07:01.228, 1556921221228
70, 0.00, -11.22, 0.00, 0.00, 0.000, 0.000, 0.000, 16:07:01.228, 1556921221228
71, 0.00, -13.18, 0.00, 0.00, 0.000, 0.000, 0.000, 16:07:01.234, 1556921221234
72, 0.00, -15.38, 0.00, 0.00, 0.000, 0.000, 0.000, 16:07:01.234, 1556921221234
73, 0.00, -8.71, 0.00, 0.00, 0.000, 0.000, 0.000, 16:07:01.249, 1556921221249
74, 0.00, -13.58, 0.00, 0.00, 0.000, 0.000, 0.000, 16:07:01.249, 1556921221249
75, 0.00, -16.37, 0.00, 0.00, 0.000, 0.000, 0.000, 16:07:01.265, 1556921221265
76, 0.00, -16.71, 0.00, 0.00, 0.000, 0.000, 0.000, 16:07:01.265, 1556921221265
77, 0.00, -12.44, 0.00, 0.00, 0.000, 0.000, 0.000, 16:07:01.268, 1556921221268
78, 0.00, -15.02, 0.00, 0.00, 0.000, 0.000, 0.000, 16:07:01.268, 1556921221268
79, 0.00, -16.05, 0.00, 0.00, 0.000, 0.000, 0.000, 16:07:01.279, 1556921221279
80, 0.00, -14.22, 0.00, 0.00, 0.000, 0.000, 0.000, 16:07:01.279, 1556921221279
81, 0.00, -15.82, 0.00, 0.00, 0.000, 0.000, 0.000, 16:07:01.294, 1556921221294
82, 0.00, -8.62, 0.00, 0.00, 0.000, 0.000, 0.000, 16:07:01.294, 1556921221294
83, 0.00, -17.81, 0.00, 0.00, 0.000, 0.000, 0.000, 16:07:01.295, 1556921221295
84, 0.00, -17.71, 0.00, 0.00, 0.000, 0.000, 0.000, 16:07:01.295, 1556921221295
85, 0.00, -7.38, 0.00, 0.00, 0.000, 0.000, 0.000, 16:07:01.310, 1556921221310
86, 0.00, -12.33, 0.00, 0.00, 0.000, 0.000, 0.000, 16:07:01.310, 1556921221310
87, 0.00, -14.55, 0.00, 0.00, 0.000, 0.000, 0.000, 16:07:01.325, 1556921221325
88, 0.00, -14.30, 0.00, 0.00, 0.000, 0.000, 0.000, 16:07:01.325, 1556921221325
89, 0.00, -15.62, 0.00, 0.00, 0.000, 0.000, 0.000, 16:07:01.325, 1556921221325
90, 0.00, -8.90, 0.00, 0.00, 0.000, 0.000, 0.000, 16:07:01.325, 1556921221325
91, 0.00, -2.92, 0.00, 0.00, 0.000, 0.000, 0.000, 16:07:01.340, 1556921221340
92, 0.00, -5.71, 0.00, 0.00, 0.000, 0.000, 0.000, 16:07:01.340, 1556921221340
93, 0.00, -6.77, 0.00, 0.00, 0.000, 0.000, 0.000, 16:07:01.357, 1556921221357
94, 0.00, -10.35, 0.00, 0.00, 0.000, 0.000, 0.000, 16:07:01.357, 1556921221357
95, 0.00, -11.20, 0.00, 0.00, 0.000, 0.000, 0.000, 16:07:01.361, 1556921221361
96, 0.00, -9.99, 0.00, 0.00, 0.000, 0.000, 0.000, 16:07:01.361, 1556921221361
97, 0.00, -10.97, 0.00, 0.00, 0.000, 0.000, 0.000, 16:07:01.370, 1556921221370
98, 0.00, -11.66, 0.00, 0.00, 0.000, 0.000, 0.000, 16:07:01.370, 1556921221370
99, 0.00, -9.65, 0.00, 0.00, 0.000, 0.000, 0.000, 16:07:01.385, 1556921221385
100, 0.00, -7.50, 0.00, 0.00, 0.000, 0.000, 0.000, 16:07:01.385, 1556921221385
101, 0.00, -5.82, 0.00, 0.00, 0.000, 0.000, 0.000, 16:07:01.387, 1556921221387
102, 0.00, -5.30, 0.00, 0.00, 0.000, 0.000, 0.000, 16:07:01.387, 1556921221387
103, 0.00, -10.73, 0.00, 0.00, 0.000, 0.000, 0.000, 16:07:01.399, 1556921221399
104, 0.00, -9.98, 0.00, 0.00, 0.000, 0.000, 0.000, 16:07:01.399, 1556921221399
105, 0.00, -8.53, 0.00, 0.00, 0.000, 0.000, 0.000, 16:07:01.416, 1556921221416
106, 0.00, -6.09, 0.00, 0.00, 0.000, 0.000, 0.000, 16:07:01.416, 1556921221416
107, 0.00, -5.56, 0.00, 0.00, 0.000, 0.000, 0.000, 16:07:01.418, 1556921221418
108, 0.00, -5.52, 0.00, 0.00, 0.000, 0.000, 0.000, 16:07:01.418, 1556921221418
109, 0.00, -7.25, 0.00, 0.00, 0.000, 0.000, 0.000, 16:07:01.432, 1556921221432
110, 0.00, -1.85, 0.00, 0.00, 0.000, 0.000, 0.000, 16:07:01.432, 1556921221432
111, 0.00, -2.06, 0.00, 0.00, 0.000, 0.000, 0.000, 16:07:01.445, 1556921221445
112, 0.00, -7.38, 0.00, 0.00, 0.000, 0.000, 0.000, 16:07:01.445, 1556921221445
113, 0.00, 1.48, 0.00, 0.00, 0.000, 0.000, 0.000, 16:07:01.451, 1556921221451
114, 0.00, 1.69, 0.00, 0.00, 0.000, 0.000, 0.000, 16:07:01.451, 1556921221451
115, 0.00, 3.59, 0.00, 0.00, 0.000, 0.000, 0.000, 16:07:01.459, 1556921221459
116, 0.00, 7.03, 0.00, 0.00, 0.000, 0.000, 0.000, 16:07:01.459, 1556921221459
117, 0.00, -0.24, 0.00, 0.00, 0.000, 0.000, 0.000, 16:07:01.476, 1556921221476
118, 0.00, -1.32, 0.00, 0.00, 0.000, 0.000, 0.000, 16:07:01.476, 1556921221476
119, 0.00, 2.68, 0.00, 0.00, 0.000, 0.000, 0.000, 16:07:01.477, 1556921221477
120, 0.00, -3.00, 0.00, 0.00, 0.000, 0.000, 0.000, 16:07:01.477, 1556921221477
121, 0.00, -2.96, 0.00, 0.00, 0.000, 0.000, 0.000, 16:07:01.490, 1556921221490
122, 0.00, -3.22, 0.00, 0.00, 0.000, 0.000, 0.000, 16:07:01.490, 1556921221490
123, 0.00, -2.34, 0.00, 0.00, 0.000, 0.000, 0.000, 16:07:01.506, 1556921221506
124, 0.00, -7.72, 0.00, 0.00, 0.000, 0.000, 0.000, 16:07:01.506, 1556921221506
125, 0.00, -4.56, 0.00, 0.00, 0.000, 0.000, 0.000, 16:07:01.510, 1556921221510
126, 0.00, -4.24, 0.00, 0.00, 0.000, 0.000, 0.000, 16:07:01.510, 1556921221510
127, 0.00, -6.48, 0.00, 0.00, 0.000, 0.000, 0.000, 16:07:01.520, 1556921221520
128, 0.00, -9.26, 0.00, 0.00, 0.000, 0.000, 0.000, 16:07:01.520, 1556921221520
129, 0.00, -7.88, 0.00, 0.00, 0.000, 0.000, 0.000, 16:07:01.535, 1556921221535
130, 0.00, -9.97, 0.00, 0.00, 0.000, 0.000, 0.000, 16:07:01.535, 1556921221535
131, 0.00, -9.48, 0.00, 0.00, 0.000, 0.000, 0.000, 16:07:01.537, 1556921221537
132, 0.00, -8.12, 0.00, 0.00, 0.000, 0.000, 0.000, 16:07:01.537, 1556921221537
133, 0.00, -9.68, 0.00, 0.00, 0.000, 0.000, 0.000, 16:07:01.549, 1556921221549
134, 0.00, -12.33, 0.00, 0.00, 0.000, 0.000, 0.000, 16:07:01.549, 1556921221549
135, 0.00, -11.69, 0.00, 0.00, 0.000, 0.000, 0.000, 16:07:01.566, 1556921221566
136, 0.00, -4.95, 0.00, 0.00, 0.000, 0.000, 0.000, 16:07:01.566, 1556921221566
137, 0.00, -17.14, 0.00, 0.00, 0.000, 0.000, 0.000, 16:07:01.568, 1556921221568
138, 0.00, -18.30, 0.00, 0.00, 0.000, 0.000, 0.000, 16:07:01.568, 1556921221568
139, 0.00, -17.37, 0.00, 0.00, 0.000, 0.000, 0.000, 16:07:01.580, 1556921221580
140, 0.00, -12.07, 0.00, 0.00, 0.000, 0.000, 0.000, 16:07:01.580, 1556921221580
141, 0.00, -19.32, 0.00, 0.00, 0.000, 0.000, 0.000, 16:07:01.596, 1556921221596
142, 0.00, -14.28, 0.00, 0.00, 0.000, 0.000, 0.000, 16:07:01.596, 1556921221596
143, 0.00, -11.41, 0.00, 0.00, 0.000, 0.000, 0.000, 16:07:01.598, 1556921221598
144, 0.00, -13.18, 0.00, 0.00, 0.000, 0.000, 0.000, 16:07:01.598, 1556921221598
145, 0.00, -5.94, 0.00, 0.00, 0.000, 0.000, 0.000, 16:07:01.609, 1556921221609
146, 0.00, -6.77, 0.00, 0.00, 0.000, 0.000, 0.000, 16:07:01.609, 1556921221609
147, 0.00, -4.01, 0.00, 0.00, 0.000, 0.000, 0.000, 16:07:01.625, 1556921221625
148, 0.00, 3.87, 0.00, 0.00, 0.000, 0.000, 0.000, 16:07:01.625, 1556921221625
149, 0.00, 20.00, 0.00, 0.00, 0.000, 0.000, 0.000, 16:07:01.627, 1556921221627
150, 0.00, 23.06, 0.00, 0.00, 0.000, 0.000, 0.000, 16:07:01.627, 1556921221627
151, 0.00, 33.45, 0.00, 0.00, 0.000, 0.000, 0.000, 16:07:01.639, 1556921221639
152, 0.00, 60.46, 0.00, 0.00, 0.000, 0.000, 0.000, 16:07:01.639, 1556921221639
153, 0.00, 81.07, 0.00, 0.00, 0.000, 0.000, 0.000, 16:07:01.656, 1556921221656
154, 0.00, 101.11, 0.00, 0.00, 0.000, 0.000, 0.000, 16:07:01.656, 1556921221656
155, 0.00, 115.39, 0.00, 0.00, 0.000, 0.000, 0.000, 16:07:01.658, 1556921221658
156, 0.00, 131.32, 0.00, 0.00, 0.000, 0.000, 0.000, 16:07:01.658, 1556921221658
157, 0.00, 142.63, 0.00, 0.00, 0.000, 0.000, 0.000, 16:07:01.669, 1556921221669
158, 0.00, 140.63, 0.00, 0.00, 0.000, 0.000, 0.000, 16:07:01.669, 1556921221669
159, 0.00, 137.11, 0.00, 0.00, 0.000, 0.000, 0.000, 16:07:01.685, 1556921221685
160, 0.00, 125.05, 0.00, 0.00, 0.000, 0.000, 0.000, 16:07:01.685, 1556921221685
161, 0.00, 113.86, 0.00, 0.00, 0.000, 0.000, 0.000, 16:07:01.686, 1556921221686
162, 0.00, 106.60, 0.00, 0.00, 0.000, 0.000, 0.000, 16:07:01.686, 1556921221686
163, 0.00, 97.94, 0.00, 0.00, 0.000, 0.000, 0.000, 16:07:01.699, 1556921221699
164, 0.00, 88.38, 0.00, 0.00, 0.000, 0.000, 0.000, 16:07:01.699, 1556921221699
165, 0.00, 81.55, 0.00, 0.00, 0.000, 0.000, 0.000, 16:07:01.715, 1556921221715
166, 0.00, 79.60, 0.00, 0.00, 0.000, 0.000, 0.000, 16:07:01.715, 1556921221715
167, 0.00, 67.61, 0.00, 0.00, 0.000, 0.000, 0.000, 16:07:01.716, 1556921221716
168, 0.00, 57.26, 0.00, 0.00, 0.000, 0.000, 0.000, 16:07:01.716, 1556921221716
169, 0.00, 51.73, 0.00, 0.00, 0.000, 0.000, 0.000, 16:07:01.730, 1556921221730
170, 0.00, 44.31, 0.00, 0.00, 0.000, 0.000, 0.000, 16:07:01.730, 1556921221730
171, 0.00, 29.45, 0.00, 0.00, 0.000, 0.000, 0.000, 16:07:01.745, 1556921221745
172, 0.00, 20.11, 0.00, 0.00, 0.000, 0.000, 0.000, 16:07:01.745, 1556921221745
173, 0.00, 14.64, 0.00, 0.00, 0.000, 0.000, 0.000, 16:07:01.747, 1556921221747
174, 0.00, 0.41, 0.00, 0.00, 0.000, 0.000, 0.000, 16:07:01.747, 1556921221747
175, 0.00, -9.86, 0.00, 0.00, 0.000, 0.000, 0.000, 16:07:01.776, 1556921221776
176, 0.00, -6.03, 0.00, 0.00, 0.000, 0.000, 0.000, 16:07:01.776, 1556921221776
177, 0.00, -11.66, 0.00, 0.00, 0.000, 0.000, 0.000, 16:07:01.777, 1556921221777
178, 0.00, -15.28, 0.00, 0.00, 0.000, 0.000, 0.000, 16:07:01.777, 1556921221777
179, 0.00, -11.91, 0.00, 0.00, 0.000, 0.000, 0.000, 16:07:01.778, 1556921221778
180, 0.00, -21.55, 0.00, 0.00, 0.000, 0.000, 0.000, 16:07:01.778, 1556921221778
181, 0.00, -21.75, 0.00, 0.00, 0.000, 0.000, 0.000, 16:07:01.790, 1556921221790
182, 0.00, -22.39, 0.00, 0.00, 0.000, 0.000, 0.000, 16:07:01.790, 1556921221790
183, 0.00, -28.70, 0.00, 0.00, 0.000, 0.000, 0.000, 16:07:01.809, 1556921221809
184, 0.00, -32.51, 0.00, 0.00, 0.000, 0.000, 0.000, 16:07:01.809, 1556921221809
185, 0.00, -34.93, 0.00, 0.00, 0.000, 0.000, 0.000, 16:07:01.811, 1556921221811
186, 0.00, -37.43, 0.00, 0.00, 0.000, 0.000, 0.000, 16:07:01.811, 1556921221811
187, 0.00, -35.83, 0.00, 0.00, 0.000, 0.000, 0.000, 16:07:01.821, 1556921221821
188, 0.00, -40.34, 0.00, 0.00, 0.000, 0.000, 0.000, 16:07:01.821, 1556921221821
189, 0.00, -45.90, 0.00, 0.00, 0.000, 0.000, 0.000, 16:07:01.835, 1556921221835
190, 0.00, -43.00, 0.00, 0.00, 0.000, 0.000, 0.000, 16:07:01.835, 1556921221835
191, 0.00, -30.55, 0.00, 0.00, 0.000, 0.000, 0.000, 16:07:01.838, 1556921221838
192, 0.00, -34.43, 0.00, 0.00, 0.000, 0.000, 0.000, 16:07:01.838, 1556921221838
193, 0.00, -32.04, 0.00, 0.00, 0.000, 0.000, 0.000, 16:07:01.850, 1556921221850
194, 0.00, -33.21, 0.00, 0.00, 0.000, 0.000, 0.000, 16:07:01.851, 1556921221851
195, 0.00, -38.35, 0.00, 0.00, 0.000, 0.000, 0.000, 16:07:01.866, 1556921221866
196, 0.00, -37.86, 0.00, 0.00, 0.000, 0.000, 0.000, 16:07:01.866, 1556921221866
197, 0.00, -37.57, 0.00, 0.00, 0.000, 0.000, 0.000, 16:07:01.867, 1556921221867
198, 0.00, -28.36, 0.00, 0.00, 0.000, 0.000, 0.000, 16:07:01.867, 1556921221867
199, 0.00, -24.19, 0.00, 0.00, 0.000, 0.000, 0.000, 16:07:01.880, 1556921221880
200, 0.00, -25.86, 0.00, 0.00, 0.000, 0.000, 0.000, 16:07:01.880, 1556921221880
0, 0.00, -18.03, 0.00, 0.00, 0.000, 0.000, 0.000, 16:07:01.884, 1556921221884
1, 0.00, -15.17, 0.00, 0.00, 0.000, 0.000, 0.000, 16:07:01.895, 1556921221895
2, 0.00, -4.03, 0.00, 0.00, 0.000, 0.000, 0.000, 16:07:01.895, 1556921221895
3, 0.00, 7.23, 0.00, 0.00, 0.000, 0.000, 0.000, 16:07:01.910, 1556921221910
4, 0.00, 35.79, 0.00, 0.00, 0.000, 0.000, 0.000, 16:07:01.910, 1556921221910
5, 0.00, 54.01, 0.00, 0.00, 0.000, 0.000, 0.000, 16:07:01.911, 1556921221911
6, 0.00, 85.48, 0.00, 0.00, 0.000, 0.000, 0.000, 16:07:01.911, 1556921221911
7, 0.00, 101.17, 0.00, 0.00, 0.000, 0.000, 0.000, 16:07:01.927, 1556921221927
8, 0.00, 116.25, 0.00, 0.00, 0.000, 0.000, 0.000, 16:07:01.927, 1556921221927
9, 0.00, 119.22, 0.00, 0.00, 0.000, 0.000, 0.000, 16:07:01.942, 1556921221942
10, 0.00, 118.74, 0.00, 0.00, 0.000, 0.000, 0.000, 16:07:01.942, 1556921221942
11, 0.00, 126.63, 0.00, 0.00, 0.000, 0.000, 0.000, 16:07:01.947, 1556921221947
12, 0.00, 128.19, 0.00, 0.00, 0.000, 0.000, 0.000, 16:07:01.947, 1556921221947
13, 0.00, 120.45, 0.00, 0.00, 0.000, 0.000, 0.000, 16:07:01.958, 1556921221958
14, 0.00, 118.73, 0.00, 0.00, 0.000, 0.000, 0.000, 16:07:01.958, 1556921221958
15, 0.00, 105.58, 0.00, 0.00, 0.000, 0.000, 0.000, 16:07:01.970, 1556921221970
16, 0.00, 81.50, 0.00, 0.00, 0.000, 0.000, 0.000, 16:07:01.970, 1556921221970
17, 0.00, 93.05, 0.00, 0.00, 0.000, 0.000, 0.000, 16:07:01.971, 1556921221971
18, 0.00, 88.28, 0.00, 0.00, 0.000, 0.000, 0.000, 16:07:01.971, 1556921221971
19, 0.00, 71.80, 0.00, 0.00, 0.000, 0.000, 0.000, 16:07:01.986, 1556921221986
20, 0.00, 54.33, 0.00, 0.00, 0.000, 0.000, 0.000, 16:07:01.986, 1556921221986
21, 0.00, 42.96, 0.00, 0.00, 0.000, 0.000, 0.000, 16:07:02.000, 1556921222000
22, 0.00, 38.12, 0.00, 0.00, 0.000, 0.000, 0.000, 16:07:02.000, 1556921222000
23, 0.00, 29.31, 0.00, 0.00, 0.000, 0.000, 0.000, 16:07:02.002, 1556921222002
24, 0.00, 23.28, 0.00, 0.00, 0.000, 0.000, 0.000, 16:07:02.002, 1556921222002
25, 0.00, 11.50, 0.00, 0.00, 0.000, 0.000, 0.000, 16:07:02.014, 1556921222014
26, 0.00, 4.13, 0.00, 0.00, 0.000, 0.000, 0.000, 16:07:02.014, 1556921222014
27, 0.00, 0.40, 0.00, 0.00, 0.000, 0.000, 0.000, 16:07:02.030, 1556921222030
28, 0.00, -5.65, 0.00, 0.00, 0.000, 0.000, 0.000, 16:07:02.030, 1556921222030
29, 0.00, -15.45, 0.00, 0.00, 0.000, 0.000, 0.000, 16:07:02.033, 1556921222033
30, 0.00, -23.58, 0.00, 0.00, 0.000, 0.000, 0.000, 16:07:02.033, 1556921222033
31, 0.00, -25.01, 0.00, 0.00, 0.000, 0.000, 0.000, 16:07:02.046, 1556921222046
32, 0.00, -24.54, 0.00, 0.00, 0.000, 0.000, 0.000, 16:07:02.046, 1556921222046
33, 0.00, -30.91, 0.00, 0.00, 0.000, 0.000, 0.000, 16:07:02.060, 1556921222060
34, 0.00, -45.35, 0.00, 0.00, 0.000, 0.000, 0.000, 16:07:02.060, 1556921222060
35, 0.00, -54.66, 0.00, 0.00, 0.000, 0.000, 0.000, 16:07:02.062, 1556921222062
36, 0.00, -58.58, 0.00, 0.00, 0.000, 0.000, 0.000, 16:07:02.062, 1556921222062
37, 0.00, -69.72, 0.00, 0.00, 0.000, 0.000, 0.000, 16:07:02.076, 1556921222076
38, 0.00, -72.99, 0.00, 0.00, 0.000, 0.000, 0.000, 16:07:02.076, 1556921222076
39, 0.00, -76.13, 0.00, 0.00, 0.000, 0.000, 0.000, 16:07:02.092, 1556921222092
40, 0.00, -82.71, 0.00, 0.00, 0.000, 0.000, 0.000, 16:07:02.092, 1556921222092
41, 0.00, -84.90, 0.00, 0.00, 0.000, 0.000, 0.000, 16:07:02.093, 1556921222093
42, 0.00, -89.13, 0.00, 0.00, 0.000, 0.000, 0.000, 16:07:02.093, 1556921222093
43, 0.00, -88.22, 0.00, 0.00, 0.000, 0.000, 0.000, 16:07:02.104, 1556921222104
44, 0.00, -90.05, 0.00, 0.00, 0.000, 0.000, 0.000, 16:07:02.104, 1556921222104
45, 0.00, -85.19, 0.00, 0.00, 0.000, 0.000, 0.000, 16:07:02.120, 1556921222120
46, 0.00, -85.40, 0.00, 0.00, 0.000, 0.000, 0.000, 16:07:02.120, 1556921222120
47, 0.00, -86.52, 0.00, 0.00, 0.000, 0.000, 0.000, 16:07:02.122, 1556921222122
48, 0.00, -84.79, 0.00, 0.00, 0.000, 0.000, 0.000, 16:07:02.122, 1556921222122
49, 0.00, -84.77, 0.00, 0.00, 0.000, 0.000, 0.000, 16:07:02.137, 1556921222137
50, 0.00, -86.84, 0.00, 0.00, 0.000, 0.000, 0.000, 16:07:02.137, 1556921222137
51, 0.00, -81.08, 0.00, 0.00, 0.000, 0.000, 0.000, 16:07:02.151, 1556921222151
52, 0.00, -81.63, 0.00, 0.00, 0.000, 0.000, 0.000, 16:07:02.151, 1556921222151
53, 0.00, -77.82, 0.00, 0.00, 0.000, 0.000, 0.000, 16:07:02.158, 1556921222158
54, 0.00, -78.02, 0.00, 0.00, 0.000, 0.000, 0.000, 16:07:02.158, 1556921222158
55, 0.00, -77.48, 0.00, 0.00, 0.000, 0.000, 0.000, 16:07:02.165, 1556921222165
56, 0.00, -83.34, 0.00, 0.00, 0.000, 0.000, 0.000, 16:07:02.165, 1556921222165
57, 0.00, -82.79, 0.00, 0.00, 0.000, 0.000, 0.000, 16:07:02.180, 1556921222180
58, 0.00, -78.34, 0.00, 0.00, 0.000, 0.000, 0.000, 16:07:02.181, 1556921222181
59, 0.00, -73.03, 0.00, 0.00, 0.000, 0.000, 0.000, 16:07:02.182, 1556921222182
60, 0.00, -70.28, 0.00, 0.00, 0.000, 0.000, 0.000, 16:07:02.182, 1556921222182
61, 0.00, -71.48, 0.00, 0.00, 0.000, 0.000, 0.000, 16:07:02.194, 1556921222194
62, 0.00, -70.19, 0.00, 0.00, 0.000, 0.000, 0.000, 16:07:02.194, 1556921222194
63, 0.00, -78.64, 0.00, 0.00, 0.000, 0.000, 0.000, 16:07:02.210, 1556921222210
64, 0.00, -73.56, 0.00, 0.00, 0.000, 0.000, 0.000, 16:07:02.210, 1556921222210
65, 0.00, -68.75, 0.00, 0.00, 0.000, 0.000, 0.000, 16:07:02.212, 1556921222212
66, 0.00, -73.91, 0.00, 0.00, 0.000, 0.000, 0.000, 16:07:02.212, 1556921222212
67, 0.00, -69.82, 0.00, 0.00, 0.000, 0.000, 0.000, 16:07:02.228, 1556921222228
68, 0.00, -67.99, 0.00, 0.00, 0.000, 0.000, 0.000, 16:07:02.228, 1556921222228
69, 0.00, -65.63, 0.00, 0.00, 0.000, 0.000, 0.000, 16:07:02.242, 1556921222242
70, 0.00, -70.34, 0.00, 0.00, 0.000, 0.000, 0.000, 16:07:02.242, 1556921222242
71, 0.00, -64.87, 0.00, 0.00, 0.000, 0.000, 0.000, 16:07:02.244, 1556921222244
72, 0.00, -66.28, 0.00, 0.00, 0.000, 0.000, 0.000, 16:07:02.244, 1556921222244
73, 0.00, -72.74, 0.00, 0.00, 0.000, 0.000, 0.000, 16:07:02.255, 1556921222255
74, 0.00, -74.23, 0.00, 0.00, 0.000, 0.000, 0.000, 16:07:02.255, 1556921222255
75, 0.00, -62.77, 0.00, 0.00, 0.000, 0.000, 0.000, 16:07:02.270, 1556921222270
76, 0.00, -57.03, 0.00, 0.00, 0.000, 0.000, 0.000, 16:07:02.270, 1556921222270
77, 0.00, -59.87, 0.00, 0.00, 0.000, 0.000, 0.000, 16:07:02.271, 1556921222271
78, 0.00, -63.02, 0.00, 0.00, 0.000, 0.000, 0.000, 16:07:02.271, 1556921222271
79, 0.00, -58.53, 0.00, 0.00, 0.000, 0.000, 0.000, 16:07:02.284, 1556921222284
80, 0.00, -56.68, 0.00, 0.00, 0.000, 0.000, 0.000, 16:07:02.284, 1556921222284
81, 0.00, -58.23, 0.00, 0.00, 0.000, 0.000, 0.000, 16:07:02.301, 1556921222301
82, 0.00, -54.85, 0.00, 0.00, 0.000, 0.000, 0.000, 16:07:02.301, 1556921222301
83, 0.00, -60.94, 0.00, 0.00, 0.000, 0.000, 0.000, 16:07:02.304, 1556921222304
84, 0.00, -58.84, 0.00, 0.00, 0.000, 0.000, 0.000, 16:07:02.304, 1556921222304
85, 0.00, -53.20, 0.00, 0.00, 0.000, 0.000, 0.000, 16:07:02.315, 1556921222315
86, 0.00, -52.53, 0.00, 0.00, 0.000, 0.000, 0.000, 16:07:02.315, 1556921222315
87, 0.00, -51.50, 0.00, 0.00, 0.000, 0.000, 0.000, 16:07:02.332, 1556921222332
88, 0.00, -55.81, 0.00, 0.00, 0.000, 0.000, 0.000, 16:07:02.332, 1556921222332
89, 0.00, -57.28, 0.00, 0.00, 0.000, 0.000, 0.000, 16:07:02.334, 1556921222334
90, 0.00, -48.19, 0.00, 0.00, 0.000, 0.000, 0.000, 16:07:02.334, 1556921222334
91, 0.00, -47.08, 0.00, 0.00, 0.000, 0.000, 0.000, 16:07:02.345, 1556921222345
92, 0.00, -42.00, 0.00, 0.00, 0.000, 0.000, 0.000, 16:07:02.345, 1556921222345
93, 0.00, -60.03, 0.00, 0.00, 0.000, 0.000, 0.000, 16:07:02.360, 1556921222360
94, 0.00, -60.75, 0.00, 0.00, 0.000, 0.000, 0.000, 16:07:02.360, 1556921222360
95, 0.00, -35.73, 0.00, 0.00, 0.000, 0.000, 0.000, 16:07:02.361, 1556921222361
96, 0.00, -43.15, 0.00, 0.00, 0.000, 0.000, 0.000, 16:07:02.361, 1556921222361
97, 0.00, -52.21, 0.00, 0.00, 0.000, 0.000, 0.000, 16:07:02.375, 1556921222375
98, 0.00, -53.16, 0.00, 0.00, 0.000, 0.000, 0.000, 16:07:02.375, 1556921222375
99, 0.00, -49.21, 0.00, 0.00, 0.000, 0.000, 0.000, 16:07:02.390, 1556921222390
100, 0.00, -43.87, 0.00, 0.00, 0.000, 0.000, 0.000, 16:07:02.390, 1556921222390
101, 0.00, -49.05, 0.00, 0.00, 0.000, 0.000, 0.000, 16:07:02.391, 1556921222391
102, 0.00, -38.22, 0.00, 0.00, 0.000, 0.000, 0.000, 16:07:02.391, 1556921222391
103, 0.00, -34.10, 0.00, 0.00, 0.000, 0.000, 0.000, 16:07:02.406, 1556921222406
104, 0.00, -26.95, 0.00, 0.00, 0.000, 0.000, 0.000, 16:07:02.406, 1556921222406
105, 0.00, -32.90, 0.00, 0.00, 0.000, 0.000, 0.000, 16:07:02.422, 1556921222422
106, 0.00, -25.45, 0.00, 0.00, 0.000, 0.000, 0.000, 16:07:02.422, 1556921222422
107, 0.00, -30.53, 0.00, 0.00, 0.000, 0.000, 0.000, 16:07:02.427, 1556921222427
108, 0.00, -25.89, 0.00, 0.00, 0.000, 0.000, 0.000, 16:07:02.427, 1556921222427
109, 0.00, -26.09, 0.00, 0.00, 0.000, 0.000, 0.000, 16:07:02.436, 1556921222436
110, 0.00, -27.50, 0.00, 0.00, 0.000, 0.000, 0.000, 16:07:02.436, 1556921222436
111, 0.00, -21.51, 0.00, 0.00, 0.000, 0.000, 0.000, 16:07:02.452, 1556921222452
112, 0.00, -19.67, 0.00, 0.00, 0.000, 0.000, 0.000, 16:07:02.452, 1556921222452
113, 0.00, -25.31, 0.00, 0.00, 0.000, 0.000, 0.000, 16:07:02.460, 1556921222460
114, 0.00, -23.83, 0.00, 0.00, 0.000, 0.000, 0.000, 16:07:02.460, 1556921222460
115, 0.00, -21.19, 0.00, 0.00, 0.000, 0.000, 0.000, 16:07:02.465, 1556921222465
116, 0.00, -28.61, 0.00, 0.00, 0.000, 0.000, 0.000, 16:07:02.465, 1556921222465
117, 0.00, -23.51, 0.00, 0.00, 0.000, 0.000, 0.000, 16:07:02.480, 1556921222480
118, 0.00, -22.52, 0.00, 0.00, 0.000, 0.000, 0.000, 16:07:02.480, 1556921222480
119, 0.00, -19.09, 0.00, 0.00, 0.000, 0.000, 0.000, 16:07:02.481, 1556921222481
120, 0.00, -24.44, 0.00, 0.00, 0.000, 0.000, 0.000, 16:07:02.481, 1556921222481
121, 0.00, -21.73, 0.00, 0.00, 0.000, 0.000, 0.000, 16:07:02.494, 1556921222494
122, 0.00, -18.62, 0.00, 0.00, 0.000, 0.000, 0.000, 16:07:02.494, 1556921222494
123, 0.00, -17.86, 0.00, 0.00, 0.000, 0.000, 0.000, 16:07:02.510, 1556921222510
124, 0.00, -22.40, 0.00, 0.00, 0.000, 0.000, 0.000, 16:07:02.510, 1556921222510
125, 0.00, -14.04, 0.00, 0.00, 0.000, 0.000, 0.000, 16:07:02.511, 1556921222511
126, 0.00, -14.84, 0.00, 0.00, 0.000, 0.000, 0.000, 16:07:02.511, 1556921222511
127, 0.00, -25.36, 0.00, 0.00, 0.000, 0.000, 0.000, 16:07:02.531, 1556921222531
128, 0.00, -15.94, 0.00, 0.00, 0.000, 0.000, 0.000, 16:07:02.531, 1556921222531
129, 0.00, -19.07, 0.00, 0.00, 0.000, 0.000, 0.000, 16:07:02.545, 1556921222545
130, 0.00, -23.80, 0.00, 0.00, 0.000, 0.000, 0.000, 16:07:02.545, 1556921222545
131, 0.00, -15.77, 0.00, 0.00, 0.000, 0.000, 0.000, 16:07:02.547, 1556921222547
132, 0.00, -20.44, 0.00, 0.00, 0.000, 0.000, 0.000, 16:07:02.547, 1556921222547
133, 0.00, -21.95, 0.00, 0.00, 0.000, 0.000, 0.000, 16:07:02.555, 1556921222555
134, 0.00, -25.59, 0.00, 0.00, 0.000, 0.000, 0.000, 16:07:02.555, 1556921222555
135, 0.00, -23.34, 0.00, 0.00, 0.000, 0.000, 0.000, 16:07:02.571, 1556921222571
136, 0.00, -25.70, 0.00, 0.00, 0.000, 0.000, 0.000, 16:07:02.571, 1556921222571
137, 0.00, -27.38, 0.00, 0.00, 0.000, 0.000, 0.000, 16:07:02.575, 1556921222575
138, 0.00, -15.30, 0.00, 0.00, 0.000, 0.000, 0.000, 16:07:02.575, 1556921222575
139, 0.00, -21.81, 0.00, 0.00, 0.000, 0.000, 0.000, 16:07:02.586, 1556921222586
140, 0.00, -28.06, 0.00, 0.00, 0.000, 0.000, 0.000, 16:07:02.586, 1556921222586
141, 0.00, -29.16, 0.00, 0.00, 0.000, 0.000, 0.000, 16:07:02.601, 1556921222601
142, 0.00, -27.44, 0.00, 0.00, 0.000, 0.000, 0.000, 16:07:02.601, 1556921222601
143, 0.00, -27.11, 0.00, 0.00, 0.000, 0.000, 0.000, 16:07:02.602, 1556921222602
144, 0.00, -26.04, 0.00, 0.00, 0.000, 0.000, 0.000, 16:07:02.602, 1556921222602
145, 0.00, -29.13, 0.00, 0.00, 0.000, 0.000, 0.000, 16:07:02.615, 1556921222615
146, 0.00, -28.38, 0.00, 0.00, 0.000, 0.000, 0.000, 16:07:02.615, 1556921222615
147, 0.00, -28.40, 0.00, 0.00, 0.000, 0.000, 0.000, 16:07:02.631, 1556921222631
148, 0.00, -26.75, 0.00, 0.00, 0.000, 0.000, 0.000, 16:07:02.631, 1556921222631
149, 0.00, -40.68, 0.00, 0.00, 0.000, 0.000, 0.000, 16:07:02.632, 1556921222632
150, 0.00, -39.13, 0.00, 0.00, 0.000, 0.000, 0.000, 16:07:02.632, 1556921222632
151, 0.00, -32.57, 0.00, 0.00, 0.000, 0.000, 0.000, 16:07:02.645, 1556921222645
152, 0.00, -30.82, 0.00, 0.00, 0.000, 0.000, 0.000, 16:07:02.645, 1556921222645
153, 0.00, -24.48, 0.00, 0.00, 0.000, 0.000, 0.000, 16:07:02.669, 1556921222669
154, 0.00, -27.89, 0.00, 0.00, 0.000, 0.000, 0.000, 16:07:02.669, 1556921222669
155, 0.00, -20.74, 0.00, 0.00, 0.000, 0.000, 0.000, 16:07:02.671, 1556921222671
156, 0.00, -17.75, 0.00, 0.00, 0.000, 0.000, 0.000, 16:07:02.671, 1556921222671
157, 0.00, -29.41, 0.00, 0.00, 0.000, 0.000, 0.000, 16:07:02.675, 1556921222675
158, 0.00, -36.67, 0.00, 0.00, 0.000, 0.000, 0.000, 16:07:02.675, 1556921222675
159, 0.00, -32.11, 0.00, 0.00, 0.000, 0.000, 0.000, 16:07:02.691, 1556921222691
160, 0.00, -25.26, 0.00, 0.00, 0.000, 0.000, 0.000, 16:07:02.691, 1556921222691
161, 0.00, -4.75, 0.00, 0.00, 0.000, 0.000, 0.000, 16:07:02.693, 1556921222693
162, 0.00, -3.24, 0.00, 0.00, 0.000, 0.000, 0.000, 16:07:02.693, 1556921222693
163, 0.00, -2.49, 0.00, 0.00, 0.000, 0.000, 0.000, 16:07:02.705, 1556921222705
164, 0.00, -10.30, 0.00, 0.00, 0.000, 0.000, 0.000, 16:07:02.705, 1556921222705
165, 0.00, -7.34, 0.00, 0.00, 0.000, 0.000, 0.000, 16:07:02.721, 1556921222721
166, 0.00, -20.88, 0.00, 0.00, 0.000, 0.000, 0.000, 16:07:02.721, 1556921222721
167, 0.00, -11.21, 0.00, 0.00, 0.000, 0.000, 0.000, 16:07:02.729, 1556921222729
168, 0.00, -13.16, 0.00, 0.00, 0.000, 0.000, 0.000, 16:07:02.729, 1556921222729
169, 0.00, -16.29, 0.00, 0.00, 0.000, 0.000, 0.000, 16:07:02.735, 1556921222735
170, 0.00, -11.13, 0.00, 0.00, 0.000, 0.000, 0.000, 16:07:02.735, 1556921222735
171, 0.00, -15.61, 0.00, 0.00, 0.000, 0.000, 0.000, 16:07:02.750, 1556921222750
172, 0.00, -20.53, 0.00, 0.00, 0.000, 0.000, 0.000, 16:07:02.750, 1556921222750
173, 0.00, -16.87, 0.00, 0.00, 0.000, 0.000, 0.000, 16:07:02.752, 1556921222752
174, 0.00, -21.40, 0.00, 0.00, 0.000, 0.000, 0.000, 16:07:02.752, 1556921222752
175, 0.00, -21.55, 0.00, 0.00, 0.000, 0.000, 0.000, 16:07:02.765, 1556921222765
176, 0.00, -22.42, 0.00, 0.00, 0.000, 0.000, 0.000, 16:07:02.765, 1556921222765
177, 0.00, -31.20, 0.00, 0.00, 0.000, 0.000, 0.000, 16:07:02.781, 1556921222781
178, 0.00, -15.87, 0.00, 0.00, 0.000, 0.000, 0.000, 16:07:02.781, 1556921222781
179, 0.00, -16.04, 0.00, 0.00, 0.000, 0.000, 0.000, 16:07:02.784, 1556921222784
180, 0.00, -24.98, 0.00, 0.00, 0.000, 0.000, 0.000, 16:07:02.784, 1556921222784
181, 0.00, -23.14, 0.00, 0.00, 0.000, 0.000, 0.000, 16:07:02.800, 1556921222800
182, 0.00, -24.44, 0.00, 0.00, 0.000, 0.000, 0.000, 16:07:02.800, 1556921222800
183, 0.00, -28.58, 0.00, 0.00, 0.000, 0.000, 0.000, 16:07:02.810, 1556921222810
184, 0.00, -26.15, 0.00, 0.00, 0.000, 0.000, 0.000, 16:07:02.810, 1556921222810
185, 0.00, -27.05, 0.00, 0.00, 0.000, 0.000, 0.000, 16:07:02.812, 1556921222812
186, 0.00, -27.80, 0.00, 0.00, 0.000, 0.000, 0.000, 16:07:02.812, 1556921222812
187, 0.00, -27.80, 0.00, 0.00, 0.000, 0.000, 0.000, 16:07:02.825, 1556921222825
188, 0.00, -20.69, 0.00, 0.00, 0.000, 0.000, 0.000, 16:07:02.825, 1556921222825
189, 0.00, -18.40, 0.00, 0.00, 0.000, 0.000, 0.000, 16:07:02.841, 1556921222841
190, 0.00, -24.71, 0.00, 0.00, 0.000, 0.000, 0.000, 16:07:02.841, 1556921222841
191, 0.00, -25.85, 0.00, 0.00, 0.000, 0.000, 0.000, 16:07:02.843, 1556921222843
192, 0.00, -22.65, 0.00, 0.00, 0.000, 0.000, 0.000, 16:07:02.843, 1556921222843
193, 0.00, -34.10, 0.00, 0.00, 0.000, 0.000, 0.000, 16:07:02.854, 1556921222854
194, 0.00, -10.91, 0.00, 0.00, 0.000, 0.000, 0.000, 16:07:02.854, 1556921222854
195, 0.00, -22.87, 0.00, 0.00, 0.000, 0.000, 0.000, 16:07:02.888, 1556921222888
196, 0.00, -26.13, 0.00, 0.00, 0.000, 0.000, 0.000, 16:07:02.888, 1556921222888
197, 0.00, -23.17, 0.00, 0.00, 0.000, 0.000, 0.000, 16:07:02.897, 1556921222897
198, 0.00, -21.97, 0.00, 0.00, 0.000, 0.000, 0.000, 16:07:02.897, 1556921222897
199, 0.00, -26.83, 0.00, 0.00, 0.000, 0.000, 0.000, 16:07:02.897, 1556921222897
200, 0.00, -15.39, 0.00, 0.00, 0.000, 0.000, 0.000, 16:07:02.897, 1556921222897
0, 0.00, -23.05, 0.00, 0.00, 0.000, 0.000, 0.000, 16:07:02.900, 1556921222900
1, 0.00, -15.99, 0.00, 0.00, 0.000, 0.000, 0.000, 16:07:02.901, 1556921222901
2, 0.00, -16.15, 0.00, 0.00, 0.000, 0.000, 0.000, 16:07:02.901, 1556921222901
3, 0.00, -18.48, 0.00, 0.00, 0.000, 0.000, 0.000, 16:07:02.915, 1556921222915
4, 0.00, -20.49, 0.00, 0.00, 0.000, 0.000, 0.000, 16:07:02.915, 1556921222915
5, 0.00, -19.84, 0.00, 0.00, 0.000, 0.000, 0.000, 16:07:02.916, 1556921222916
6, 0.00, -13.89, 0.00, 0.00, 0.000, 0.000, 0.000, 16:07:02.916, 1556921222916
7, 0.00, -18.75, 0.00, 0.00, 0.000, 0.000, 0.000, 16:07:02.929, 1556921222929
8, 0.00, -18.46, 0.00, 0.00, 0.000, 0.000, 0.000, 16:07:02.929, 1556921222929
9, 0.00, -25.57, 0.00, 0.00, 0.000, 0.000, 0.000, 16:07:02.945, 1556921222945
10, 0.00, -22.60, 0.00, 0.00, 0.000, 0.000, 0.000, 16:07:02.945, 1556921222945
11, 0.00, -16.90, 0.00, 0.00, 0.000, 0.000, 0.000, 16:07:02.946, 1556921222946
12, 0.00, -13.78, 0.00, 0.00, 0.000, 0.000, 0.000, 16:07:02.946, 1556921222946
13, 0.00, -19.53, 0.00, 0.00, 0.000, 0.000, 0.000, 16:07:02.960, 1556921222960
14, 0.00, -16.34, 0.00, 0.00, 0.000, 0.000, 0.000, 16:07:02.960, 1556921222960
15, 0.00, -19.46, 0.00, 0.00, 0.000, 0.000, 0.000, 16:07:02.975, 1556921222975
16, 0.00, -19.99, 0.00, 0.00, 0.000, 0.000, 0.000, 16:07:02.975, 1556921222975
17, 0.00, -16.83, 0.00, 0.00, 0.000, 0.000, 0.000, 16:07:02.976, 1556921222976
18, 0.00, -19.43, 0.00, 0.00, 0.000, 0.000, 0.000, 16:07:02.976, 1556921222976
19, 0.00, -16.97, 0.00, 0.00, 0.000, 0.000, 0.000, 16:07:02.989, 1556921222989
20, 0.00, -14.44, 0.00, 0.00, 0.000, 0.000, 0.000, 16:07:02.989, 1556921222989
21, 0.00, -13.97, 0.00, 0.00, 0.000, 0.000, 0.000, 16:07:03.005, 1556921223005
22, 0.00, -19.73, 0.00, 0.00, 0.000, 0.000, 0.000, 16:07:03.005, 1556921223005
23, 0.00, -20.75, 0.00, 0.00, 0.000, 0.000, 0.000, 16:07:03.006, 1556921223006
24, 0.00, -14.44, 0.00, 0.00, 0.000, 0.000, 0.000, 16:07:03.006, 1556921223006
25, 0.00, -16.07, 0.00, 0.00, 0.000, 0.000, 0.000, 16:07:03.020, 1556921223020
26, 0.00, -17.55, 0.00, 0.00, 0.000, 0.000, 0.000, 16:07:03.020, 1556921223020
27, 0.00, -19.17, 0.00, 0.00, 0.000, 0.000, 0.000, 16:07:03.035, 1556921223035
28, 0.00, -20.66, 0.00, 0.00, 0.000, 0.000, 0.000, 16:07:03.035, 1556921223035
29, 0.00, -16.45, 0.00, 0.00, 0.000, 0.000, 0.000, 16:07:03.038, 1556921223038
30, 0.00, -13.96, 0.00, 0.00, 0.000, 0.000, 0.000, 16:07:03.038, 1556921223038
31, 0.00, -10.02, 0.00, 0.00, 0.000, 0.000, 0.000, 16:07:03.050, 1556921223050
32, 0.00, -13.16, 0.00, 0.00, 0.000, 0.000, 0.000, 16:07:03.050, 1556921223050
33, 0.00, -16.13, 0.00, 0.00, 0.000, 0.000, 0.000, 16:07:03.065, 1556921223065
34, 0.00, -17.93, 0.00, 0.00, 0.000, 0.000, 0.000, 16:07:03.065, 1556921223065
35, 0.00, -16.12, 0.00, 0.00, 0.000, 0.000, 0.000, 16:07:03.067, 1556921223067
36, 0.00, -17.33, 0.00, 0.00, 0.000, 0.000, 0.000, 16:07:03.067, 1556921223067
37, 0.00, -12.07, 0.00, 0.00, 0.000, 0.000, 0.000, 16:07:03.080, 1556921223080
38, 0.00, -8.84, 0.00, 0.00, 0.000, 0.000, 0.000, 16:07:03.080, 1556921223080
39, 0.00, -12.14, 0.00, 0.00, 0.000, 0.000, 0.000, 16:07:03.095, 1556921223095
40, 0.00, -12.04, 0.00, 0.00, 0.000, 0.000, 0.000, 16:07:03.095, 1556921223095
41, 0.00, -11.98, 0.00, 0.00, 0.000, 0.000, 0.000, 16:07:03.097, 1556921223097
42, 0.00, -11.58, 0.00, 0.00, 0.000, 0.000, 0.000, 16:07:03.097, 1556921223097
43, 0.00, -6.49, 0.00, 0.00, 0.000, 0.000, 0.000, 16:07:03.109, 1556921223109
44, 0.00, -3.26, 0.00, 0.00, 0.000, 0.000, 0.000, 16:07:03.109, 1556921223109
45, 0.00, -8.09, 0.00, 0.00, 0.000, 0.000, 0.000, 16:07:03.125, 1556921223125
46, 0.00, -5.14, 0.00, 0.00, 0.000, 0.000, 0.000, 16:07:03.125, 1556921223125
47, 0.00, -6.33, 0.00, 0.00, 0.000, 0.000, 0.000, 16:07:03.127, 1556921223127
48, 0.00, -12.67, 0.00, 0.00, 0.000, 0.000, 0.000, 16:07:03.127, 1556921223127
49, 0.00, -13.99, 0.00, 0.00, 0.000, 0.000, 0.000, 16:07:03.139, 1556921223139
50, 0.00, -12.44, 0.00, 0.00, 0.000, 0.000, 0.000, 16:07:03.139, 1556921223139
51, 0.00, -8.18, 0.00, 0.00, 0.000, 0.000, 0.000, 16:07:03.155, 1556921223155
52, 0.00, -6.11, 0.00, 0.00, 0.000, 0.000, 0.000, 16:07:03.155, 1556921223155
53, 0.00, -2.73, 0.00, 0.00, 0.000, 0.000, 0.000, 16:07:03.156, 1556921223156
54, 0.00, -1.15, 0.00, 0.00, 0.000, 0.000, 0.000, 16:07:03.156, 1556921223156
55, 0.00, -3.83, 0.00, 0.00, 0.000, 0.000, 0.000, 16:07:03.169, 1556921223169
56, 0.00, -5.18, 0.00, 0.00, 0.000, 0.000, 0.000, 16:07:03.169, 1556921223169
57, 0.00, -4.28, 0.00, 0.00, 0.000, 0.000, 0.000, 16:07:03.185, 1556921223185
58, 0.00, -4.52, 0.00, 0.00, 0.000, 0.000, 0.000, 16:07:03.185, 1556921223185
59, 0.00, -5.68, 0.00, 0.00, 0.000, 0.000, 0.000, 16:07:03.186, 1556921223186
60, 0.00, -3.18, 0.00, 0.00, 0.000, 0.000, 0.000, 16:07:03.186, 1556921223186
61, 0.00, -5.09, 0.00, 0.00, 0.000, 0.000, 0.000, 16:07:03.200, 1556921223200
62, 0.00, -8.10, 0.00, 0.00, 0.000, 0.000, 0.000, 16:07:03.200, 1556921223200
63, 0.00, -9.75, 0.00, 0.00, 0.000, 0.000, 0.000, 16:07:03.215, 1556921223215
64, 0.00, -2.63, 0.00, 0.00, 0.000, 0.000, 0.000, 16:07:03.215, 1556921223215
65, 0.00, -8.82, 0.00, 0.00, 0.000, 0.000, 0.000, 16:07:03.216, 1556921223216
66, 0.00, -19.41, 0.00, 0.00, 0.000, 0.000, 0.000, 16:07:03.216, 1556921223216
67, 0.00, -19.10, 0.00, 0.00, 0.000, 0.000, 0.000, 16:07:03.230, 1556921223230
68, 0.00, -28.17, 0.00, 0.00, 0.000, 0.000, 0.000, 16:07:03.230, 1556921223230
69, 0.00, -28.15, 0.00, 0.00, 0.000, 0.000, 0.000, 16:07:03.245, 1556921223245
70, 0.00, -31.29, 0.00, 0.00, 0.000, 0.000, 0.000, 16:07:03.245, 1556921223245
71, 0.00, -25.71, 0.00, 0.00, 0.000, 0.000, 0.000, 16:07:03.246, 1556921223246
72, 0.00, -35.14, 0.00, 0.00, 0.000, 0.000, 0.000, 16:07:03.246, 1556921223246
73, 0.00, -29.83, 0.00, 0.00, 0.000, 0.000, 0.000, 16:07:03.259, 1556921223259
74, 0.00, -24.59, 0.00, 0.00, 0.000, 0.000, 0.000, 16:07:03.259, 1556921223259
75, 0.00, -27.97, 0.00, 0.00, 0.000, 0.000, 0.000, 16:07:03.275, 1556921223275
76, 0.00, -31.88, 0.00, 0.00, 0.000, 0.000, 0.000, 16:07:03.275, 1556921223275
77, 0.00, -24.77, 0.00, 0.00, 0.000, 0.000, 0.000, 16:07:03.276, 1556921223276
78, 0.00, -25.24, 0.00, 0.00, 0.000, 0.000, 0.000, 16:07:03.276, 1556921223276
79, 0.00, -28.75, 0.00, 0.00, 0.000, 0.000, 0.000, 16:07:03.291, 1556921223291
80, 0.00, -26.31, 0.00, 0.00, 0.000, 0.000, 0.000, 16:07:03.291, 1556921223291
81, 0.00, -26.34, 0.00, 0.00, 0.000, 0.000, 0.000, 16:07:03.305, 1556921223305
82, 0.00, -27.08, 0.00, 0.00, 0.000, 0.000, 0.000, 16:07:03.305, 1556921223305
83, 0.00, -28.89, 0.00, 0.00, 0.000, 0.000, 0.000, 16:07:03.307, 1556921223307
84, 0.00, -26.55, 0.00, 0.00, 0.000, 0.000, 0.000, 16:07:03.307, 1556921223307
85, 0.00, -25.63, 0.00, 0.00, 0.000, 0.000, 0.000, 16:07:03.319, 1556921223319
86, 0.00, -30.65, 0.00, 0.00, 0.000, 0.000, 0.000, 16:07:03.319, 1556921223319
87, 0.00, -24.75, 0.00, 0.00, 0.000, 0.000, 0.000, 16:07:03.335, 1556921223335
88, 0.00, -28.38, 0.00, 0.00, 0.000, 0.000, 0.000, 16:07:03.335, 1556921223335
89, 0.00, -32.55, 0.00, 0.00, 0.000, 0.000, 0.000, 16:07:03.336, 1556921223336
90, 0.00, -28.34, 0.00, 0.00, 0.000, 0.000, 0.000, 16:07:03.336, 1556921223336
91, 0.00, -28.95, 0.00, 0.00, 0.000, 0.000, 0.000, 16:07:03.349, 1556921223349
92, 0.00, -35.51, 0.00, 0.00, 0.000, 0.000, 0.000, 16:07:03.349, 1556921223349
93, 0.00, -32.71, 0.00, 0.00, 0.000, 0.000, 0.000, 16:07:03.365, 1556921223365
94, 0.00, -23.27, 0.00, 0.00, 0.000, 0.000, 0.000, 16:07:03.365, 1556921223365
95, 0.00, -25.98, 0.00, 0.00, 0.000, 0.000, 0.000, 16:07:03.366, 1556921223366
96, 0.00, -11.14, 0.00, 0.00, 0.000, 0.000, 0.000, 16:07:03.366, 1556921223366
97, 0.00, -1.08, 0.00, 0.00, 0.000, 0.000, 0.000, 16:07:03.379, 1556921223379
98, 0.00, -15.77, 0.00, 0.00, 0.000, 0.000, 0.000, 16:07:03.379, 1556921223379
99, 0.00, -3.44, 0.00, 0.00, 0.000, 0.000, 0.000, 16:07:03.395, 1556921223395
100, 0.00, 11.54, 0.00, 0.00, 0.000, 0.000, 0.000, 16:07:03.395, 1556921223395
101, 0.00, 39.44, 0.00, 0.00, 0.000, 0.000, 0.000, 16:07:03.396, 1556921223396
102, 0.00, 60.37, 0.00, 0.00, 0.000, 0.000, 0.000, 16:07:03.396, 1556921223396
103, 0.00, 90.04, 0.00, 0.00, 0.000, 0.000, 0.000, 16:07:03.409, 1556921223409
104, 0.00, 117.34, 0.00, 0.00, 0.000, 0.000, 0.000, 16:07:03.409, 1556921223409
105, 0.00, 131.94, 0.00, 0.00, 0.000, 0.000, 0.000, 16:07:03.441, 1556921223441
106, 0.00, 141.96, 0.00, 0.00, 0.000, 0.000, 0.000, 16:07:03.441, 1556921223441
107, 0.00, 147.68, 0.00, 0.00, 0.000, 0.000, 0.000, 16:07:03.442, 1556921223442
108, 0.00, 141.02, 0.00, 0.00, 0.000, 0.000, 0.000, 16:07:03.442, 1556921223442
109, 0.00, 145.26, 0.00, 0.00, 0.000, 0.000, 0.000, 16:07:03.443, 1556921223443
110, 0.00, 144.87, 0.00, 0.00, 0.000, 0.000, 0.000, 16:07:03.443, 1556921223443
111, 0.00, 132.48, 0.00, 0.00, 0.000, 0.000, 0.000, 16:07:03.444, 1556921223444
112, 0.00, 121.77, 0.00, 0.00, 0.000, 0.000, 0.000, 16:07:03.444, 1556921223444
113, 0.00, 110.47, 0.00, 0.00, 0.000, 0.000, 0.000, 16:07:03.454, 1556921223454
114, 0.00, 97.83, 0.00, 0.00, 0.000, 0.000, 0.000, 16:07:03.454, 1556921223454
115, 0.00, 91.44, 0.00, 0.00, 0.000, 0.000, 0.000, 16:07:03.469, 1556921223469
116, 0.00, 81.65, 0.00, 0.00, 0.000, 0.000, 0.000, 16:07:03.469, 1556921223469
117, 0.00, 71.07, 0.00, 0.00, 0.000, 0.000, 0.000, 16:07:03.485, 1556921223485
118, 0.00, 60.08, 0.00, 0.00, 0.000, 0.000, 0.000, 16:07:03.485, 1556921223485
119, 0.00, 52.14, 0.00, 0.00, 0.000, 0.000, 0.000, 16:07:03.486, 1556921223486
120, 0.00, 49.95, 0.00, 0.00, 0.000, 0.000, 0.000, 16:07:03.486, 1556921223486
121, 0.00, 45.20, 0.00, 0.00, 0.000, 0.000, 0.000, 16:07:03.499, 1556921223499
122, 0.00, 38.59, 0.00, 0.00, 0.000, 0.000, 0.000, 16:07:03.499, 1556921223499
123, 0.00, 30.78, 0.00, 0.00, 0.000, 0.000, 0.000, 16:07:03.515, 1556921223515
124, 0.00, 29.30, 0.00, 0.00, 0.000, 0.000, 0.000, 16:07:03.515, 1556921223515
125, 0.00, 21.49, 0.00, 0.00, 0.000, 0.000, 0.000, 16:07:03.516, 1556921223516
126, 0.00, 5.43, 0.00, 0.00, 0.000, 0.000, 0.000, 16:07:03.516, 1556921223516
127, 0.00, 2.27, 0.00, 0.00, 0.000, 0.000, 0.000, 16:07:03.530, 1556921223530
128, 0.00, -6.10, 0.00, 0.00, 0.000, 0.000, 0.000, 16:07:03.530, 1556921223530
129, 0.00, -5.05, 0.00, 0.00, 0.000, 0.000, 0.000, 16:07:03.545, 1556921223545
130, 0.00, -10.59, 0.00, 0.00, 0.000, 0.000, 0.000, 16:07:03.545, 1556921223545
131, 0.00, -11.21, 0.00, 0.00, 0.000, 0.000, 0.000, 16:07:03.546, 1556921223546
132, 0.00, -21.91, 0.00, 0.00, 0.000, 0.000, 0.000, 16:07:03.546, 1556921223546
133, 0.00, -28.24, 0.00, 0.00, 0.000, 0.000, 0.000, 16:07:03.560, 1556921223560
134, 0.00, -35.10, 0.00, 0.00, 0.000, 0.000, 0.000, 16:07:03.560, 1556921223560
135, 0.00, -41.28, 0.00, 0.00, 0.000, 0.000, 0.000, 16:07:03.575, 1556921223575
136, 0.00, -47.27, 0.00, 0.00, 0.000, 0.000, 0.000, 16:07:03.575, 1556921223575
137, 0.00, -47.00, 0.00, 0.00, 0.000, 0.000, 0.000, 16:07:03.576, 1556921223576
138, 0.00, -54.89, 0.00, 0.00, 0.000, 0.000, 0.000, 16:07:03.576, 1556921223576
139, 0.00, -55.60, 0.00, 0.00, 0.000, 0.000, 0.000, 16:07:03.590, 1556921223590
140, 0.00, -54.92, 0.00, 0.00, 0.000, 0.000, 0.000, 16:07:03.590, 1556921223590
141, 0.00, -53.76, 0.00, 0.00, 0.000, 0.000, 0.000, 16:07:03.605, 1556921223605
142, 0.00, -59.84, 0.00, 0.00, 0.000, 0.000, 0.000, 16:07:03.605, 1556921223605
143, 0.00, -63.97, 0.00, 0.00, 0.000, 0.000, 0.000, 16:07:03.606, 1556921223606
144, 0.00, -55.30, 0.00, 0.00, 0.000, 0.000, 0.000, 16:07:03.606, 1556921223606
145, 0.00, -56.63, 0.00, 0.00, 0.000, 0.000, 0.000, 16:07:03.620, 1556921223620
146, 0.00, -55.38, 0.00, 0.00, 0.000, 0.000, 0.000, 16:07:03.620, 1556921223620
147, 0.00, -55.02, 0.00, 0.00, 0.000, 0.000, 0.000, 16:07:03.635, 1556921223635
148, 0.00, -55.81, 0.00, 0.00, 0.000, 0.000, 0.000, 16:07:03.635, 1556921223635
149, 0.00, -58.77, 0.00, 0.00, 0.000, 0.000, 0.000, 16:07:03.636, 1556921223636
150, 0.00, -52.32, 0.00, 0.00, 0.000, 0.000, 0.000, 16:07:03.636, 1556921223636
151, 0.00, -53.52, 0.00, 0.00, 0.000, 0.000, 0.000, 16:07:03.650, 1556921223650
152, 0.00, -52.29, 0.00, 0.00, 0.000, 0.000, 0.000, 16:07:03.650, 1556921223650
153, 0.00, -55.44, 0.00, 0.00, 0.000, 0.000, 0.000, 16:07:03.667, 1556921223667
154, 0.00, -55.04, 0.00, 0.00, 0.000, 0.000, 0.000, 16:07:03.667, 1556921223667
155, 0.00, -50.45, 0.00, 0.00, 0.000, 0.000, 0.000, 16:07:03.669, 1556921223669
156, 0.00, -53.10, 0.00, 0.00, 0.000, 0.000, 0.000, 16:07:03.669, 1556921223669
157, 0.00, -47.68, 0.00, 0.00, 0.000, 0.000, 0.000, 16:07:03.680, 1556921223680
158, 0.00, -48.15, 0.00, 0.00, 0.000, 0.000, 0.000, 16:07:03.680, 1556921223680
159, 0.00, -45.12, 0.00, 0.00, 0.000, 0.000, 0.000, 16:07:03.696, 1556921223696
160, 0.00, -49.06, 0.00, 0.00, 0.000, 0.000, 0.000, 16:07:03.696, 1556921223696
161, 0.00, -47.83, 0.00, 0.00, 0.000, 0.000, 0.000, 16:07:03.697, 1556921223697
162, 0.00, -50.18, 0.00, 0.00, 0.000, 0.000, 0.000, 16:07:03.697, 1556921223697
163, 0.00, -45.85, 0.00, 0.00, 0.000, 0.000, 0.000, 16:07:03.709, 1556921223709
164, 0.00, -43.49, 0.00, 0.00, 0.000, 0.000, 0.000, 16:07:03.709, 1556921223709
165, 0.00, -47.32, 0.00, 0.00, 0.000, 0.000, 0.000, 16:07:03.725, 1556921223725
166, 0.00, -45.03, 0.00, 0.00, 0.000, 0.000, 0.000, 16:07:03.725, 1556921223725
167, 0.00, -43.17, 0.00, 0.00, 0.000, 0.000, 0.000, 16:07:03.727, 1556921223727
168, 0.00, -41.67, 0.00, 0.00, 0.000, 0.000, 0.000, 16:07:03.727, 1556921223727
169, 0.00, -41.78, 0.00, 0.00, 0.000, 0.000, 0.000, 16:07:03.740, 1556921223740
170, 0.00, -40.98, 0.00, 0.00, 0.000, 0.000, 0.000, 16:07:03.740, 1556921223740
171, 0.00, -33.64, 0.00, 0.00, 0.000, 0.000, 0.000, 16:07:03.755, 1556921223755
172, 0.00, -37.42, 0.00, 0.00, 0.000, 0.000, 0.000, 16:07:03.755, 1556921223755
173, 0.00, -45.94, 0.00, 0.00, 0.000, 0.000, 0.000, 16:07:03.756, 1556921223756
174, 0.00, -45.79, 0.00, 0.00, 0.000, 0.000, 0.000, 16:07:03.756, 1556921223756
175, 0.00, -45.19, 0.00, 0.00, 0.000, 0.000, 0.000, 16:07:03.770, 1556921223770
176, 0.00, -35.69, 0.00, 0.00, 0.000, 0.000, 0.000, 16:07:03.770, 1556921223770
177, 0.00, -24.12, 0.00, 0.00, 0.000, 0.000, 0.000, 16:07:03.786, 1556921223786
178, 0.00, -33.18, 0.00, 0.00, 0.000, 0.000, 0.000, 16:07:03.786, 1556921223786
179, 0.00, -37.86, 0.00, 0.00, 0.000, 0.000, 0.000, 16:07:03.786, 1556921223786
180, 0.00, -32.61, 0.00, 0.00, 0.000, 0.000, 0.000, 16:07:03.786, 1556921223786
181, 0.00, -33.73, 0.00, 0.00, 0.000, 0.000, 0.000, 16:07:03.800, 1556921223800
182, 0.00, -35.30, 0.00, 0.00, 0.000, 0.000, 0.000, 16:07:03.800, 1556921223800
183, 0.00, -27.25, 0.00, 0.00, 0.000, 0.000, 0.000, 16:07:03.815, 1556921223815
184, 0.00, -27.34, 0.00, 0.00, 0.000, 0.000, 0.000, 16:07:03.815, 1556921223815
185, 0.00, -31.64, 0.00, 0.00, 0.000, 0.000, 0.000, 16:07:03.816, 1556921223816
186, 0.00, -35.02, 0.00, 0.00, 0.000, 0.000, 0.000, 16:07:03.816, 1556921223816
187, 0.00, -33.06, 0.00, 0.00, 0.000, 0.000, 0.000, 16:07:03.830, 1556921223830
188, 0.00, -32.59, 0.00, 0.00, 0.000, 0.000, 0.000, 16:07:03.830, 1556921223830
189, 0.00, -33.04, 0.00, 0.00, 0.000, 0.000, 0.000, 16:07:03.846, 1556921223846
190, 0.00, -27.90, 0.00, 0.00, 0.000, 0.000, 0.000, 16:07:03.846, 1556921223846
191, 0.00, -28.25, 0.00, 0.00, 0.000, 0.000, 0.000, 16:07:03.846, 1556921223846
192, 0.00, -33.23, 0.00, 0.00, 0.000, 0.000, 0.000, 16:07:03.846, 1556921223846
193, 0.00, -34.25, 0.00, 0.00, 0.000, 0.000, 0.000, 16:07:03.860, 1556921223860
194, 0.00, -28.91, 0.00, 0.00, 0.000, 0.000, 0.000, 16:07:03.860, 1556921223860
195, 0.00, -28.76, 0.00, 0.00, 0.000, 0.000, 0.000, 16:07:03.875, 1556921223875
196, 0.00, -27.39, 0.00, 0.00, 0.000, 0.000, 0.000, 16:07:03.875, 1556921223875
197, 0.00, -28.27, 0.00, 0.00, 0.000, 0.000, 0.000, 16:07:03.876, 1556921223876
198, 0.00, -28.70, 0.00, 0.00, 0.000, 0.000, 0.000, 16:07:03.876, 1556921223876
199, 0.00, -32.42, 0.00, 0.00, 0.000, 0.000, 0.000, 16:07:03.890, 1556921223890
200, 0.00, -26.79, 0.00, 0.00, 0.000, 0.000, 0.000, 16:07:03.890, 1556921223890
0, 0.00, -24.49, 0.00, 0.00, 0.000, 0.000, 0.000, 16:07:03.892, 1556921223892
1, 0.00, -27.24, 0.00, 0.00, 0.000, 0.000, 0.000, 16:07:03.905, 1556921223905
2, 0.00, -25.90, 0.00, 0.00, 0.000, 0.000, 0.000, 16:07:03.905, 1556921223905
3, 0.00, -24.57, 0.00, 0.00, 0.000, 0.000, 0.000, 16:07:03.920, 1556921223920
4, 0.00, -24.77, 0.00, 0.00, 0.000, 0.000, 0.000, 16:07:03.920, 1556921223920
5, 0.00, -25.53, 0.00, 0.00, 0.000, 0.000, 0.000, 16:07:03.921, 1556921223921
6, 0.00, -25.02, 0.00, 0.00, 0.000, 0.000, 0.000, 16:07:03.921, 1556921223921
7, 0.00, -20.09, 0.00, 0.00, 0.000, 0.000, 0.000, 16:07:03.935, 1556921223935
8, 0.00, -20.45, 0.00, 0.00, 0.000, 0.000, 0.000, 16:07:03.935, 1556921223935
9, 0.00, -16.69, 0.00, 0.00, 0.000, 0.000, 0.000, 16:07:03.950, 1556921223950
10, 0.00, -17.13, 0.00, 0.00, 0.000, 0.000, 0.000, 16:07:03.950, 1556921223950
11, 0.00, -27.65, 0.00, 0.00, 0.000, 0.000, 0.000, 16:07:03.951, 1556921223951
12, 0.00, -22.48, 0.00, 0.00, 0.000, 0.000, 0.000, 16:07:03.951, 1556921223951
13, 0.00, -16.58, 0.00, 0.00, 0.000, 0.000, 0.000, 16:07:03.964, 1556921223964
14, 0.00, -22.48, 0.00, 0.00, 0.000, 0.000, 0.000, 16:07:03.964, 1556921223964
15, 0.00, -24.77, 0.00, 0.00, 0.000, 0.000, 0.000, 16:07:03.980, 1556921223980
16, 0.00, -17.45, 0.00, 0.00, 0.000, 0.000, 0.000, 16:07:03.980, 1556921223980
17, 0.00, -24.60, 0.00, 0.00, 0.000, 0.000, 0.000, 16:07:03.981, 1556921223981
18, 0.00, -20.88, 0.00, 0.00, 0.000, 0.000, 0.000, 16:07:03.981, 1556921223981
19, 0.00, -13.74, 0.00, 0.00, 0.000, 0.000, 0.000, 16:07:03.994, 1556921223994
20, 0.00, -11.46, 0.00, 0.00, 0.000, 0.000, 0.000, 16:07:03.994, 1556921223994
21, 0.00, -19.86, 0.00, 0.00, 0.000, 0.000, 0.000, 16:07:04.010, 1556921224010
22, 0.00, -17.93, 0.00, 0.00, 0.000, 0.000, 0.000, 16:07:04.010, 1556921224010
23, 0.00, -19.15, 0.00, 0.00, 0.000, 0.000, 0.000, 16:07:04.010, 1556921224010
24, 0.00, -19.85, 0.00, 0.00, 0.000, 0.000, 0.000, 16:07:04.010, 1556921224010
25, 0.00, -20.89, 0.00, 0.00, 0.000, 0.000, 0.000, 16:07:04.024, 1556921224024
26, 0.00, -14.23, 0.00, 0.00, 0.000, 0.000, 0.000, 16:07:04.024, 1556921224024
27, 0.00, -17.72, 0.00, 0.00, 0.000, 0.000, 0.000, 16:07:04.041, 1556921224041
28, 0.00, -18.98, 0.00, 0.00, 0.000, 0.000, 0.000, 16:07:04.041, 1556921224041
29, 0.00, -19.71, 0.00, 0.00, 0.000, 0.000, 0.000, 16:07:04.042, 1556921224042
30, 0.00, -17.33, 0.00, 0.00, 0.000, 0.000, 0.000, 16:07:04.042, 1556921224042
31, 0.00, -18.81, 0.00, 0.00, 0.000, 0.000, 0.000, 16:07:04.054, 1556921224054
32, 0.00, -15.67, 0.00, 0.00, 0.000, 0.000, 0.000, 16:07:04.054, 1556921224054
33, 0.00, -14.82, 0.00, 0.00, 0.000, 0.000, 0.000, 16:07:04.070, 1556921224070
34, 0.00, -18.74, 0.00, 0.00, 0.000, 0.000, 0.000, 16:07:04.070, 1556921224070
35, 0.00, -17.06, 0.00, 0.00, 0.000, 0.000, 0.000, 16:07:04.071, 1556921224071
36, 0.00, -19.59, 0.00, 0.00, 0.000, 0.000, 0.000, 16:07:04.071, 1556921224071
37, 0.00, -19.19, 0.00, 0.00, 0.000, 0.000, 0.000, 16:07:04.086, 1556921224086
38, 0.00, -18.87, 0.00, 0.00, 0.000, 0.000, 0.000, 16:07:04.086, 1556921224086
39, 0.00, -22.00, 0.00, 0.00, 0.000, 0.000, 0.000, 16:07:04.100, 1556921224100
40, 0.00, -22.96, 0.00, 0.00, 0.000, 0.000, 0.000, 16:07:04.100, 1556921224100
41, 0.00, -22.03, 0.00, 0.00, 0.000, 0.000, 0.000, 16:07:04.101, 1556921224101
42, 0.00, -24.79, 0.00, 0.00, 0.000, 0.000, 0.000, 16:07:04.101, 1556921224101
43, 0.00, -22.76, 0.00, 0.00, 0.000, 0.000, 0.000, 16:07:04.114, 1556921224114
44, 0.00, -19.51, 0.00, 0.00, 0.000, 0.000, 0.000, 16:07:04.114, 1556921224114
45, 0.00, -15.31, 0.00, 0.00, 0.000, 0.000, 0.000, 16:07:04.130, 1556921224130
46, 0.00, -16.64, 0.00, 0.00, 0.000, 0.000, 0.000, 16:07:04.130, 1556921224130
47, 0.00, -15.50, 0.00, 0.00, 0.000, 0.000, 0.000, 16:07:04.131, 1556921224131
48, 0.00, -21.46, 0.00, 0.00, 0.000, 0.000, 0.000, 16:07:04.131, 1556921224131
49, 0.00, -20.39, 0.00, 0.00, 0.000, 0.000, 0.000, 16:07:04.144, 1556921224144
50, 0.00, -19.31, 0.00, 0.00, 0.000, 0.000, 0.000, 16:07:04.144, 1556921224144
51, 0.00, -19.60, 0.00, 0.00, 0.000, 0.000, 0.000, 16:07:04.160, 1556921224160
52, 0.00, -19.68, 0.00, 0.00, 0.000, 0.000, 0.000, 16:07:04.160, 1556921224160
53, 0.00, -19.14, 0.00, 0.00, 0.000, 0.000, 0.000, 16:07:04.161, 1556921224161
54, 0.00, -20.54, 0.00, 0.00, 0.000, 0.000, 0.000, 16:07:04.161, 1556921224161
55, 0.00, -24.51, 0.00, 0.00, 0.000, 0.000, 0.000, 16:07:04.174, 1556921224174
56, 0.00, -15.29, 0.00, 0.00, 0.000, 0.000, 0.000, 16:07:04.174, 1556921224174
57, 0.00, -15.65, 0.00, 0.00, 0.000, 0.000, 0.000, 16:07:04.190, 1556921224190
58, 0.00, -18.14, 0.00, 0.00, 0.000, 0.000, 0.000, 16:07:04.190, 1556921224190
59, 0.00, -17.57, 0.00, 0.00, 0.000, 0.000, 0.000, 16:07:04.192, 1556921224192
60, 0.00, -18.99, 0.00, 0.00, 0.000, 0.000, 0.000, 16:07:04.192, 1556921224192
61, 0.00, -18.71, 0.00, 0.00, 0.000, 0.000, 0.000, 16:07:04.204, 1556921224204
62, 0.00, -24.73, 0.00, 0.00, 0.000, 0.000, 0.000, 16:07:04.204, 1556921224204
63, 0.00, -19.33, 0.00, 0.00, 0.000, 0.000, 0.000, 16:07:04.220, 1556921224220
64, 0.00, -20.75, 0.00, 0.00, 0.000, 0.000, 0.000, 16:07:04.220, 1556921224220
65, 0.00, -22.91, 0.00, 0.00, 0.000, 0.000, 0.000, 16:07:04.221, 1556921224221
66, 0.00, -15.80, 0.00, 0.00, 0.000, 0.000, 0.000, 16:07:04.221, 1556921224221
67, 0.00, -22.43, 0.00, 0.00, 0.000, 0.000, 0.000, 16:07:04.234, 1556921224234
68, 0.00, -18.69, 0.00, 0.00, 0.000, 0.000, 0.000, 16:07:04.234, 1556921224234
69, 0.00, -18.43, 0.00, 0.00, 0.000, 0.000, 0.000, 16:07:04.250, 1556921224250
70, 0.00, -21.82, 0.00, 0.00, 0.000, 0.000, 0.000, 16:07:04.250, 1556921224250
71, 0.00, -22.50, 0.00, 0.00, 0.000, 0.000, 0.000, 16:07:04.251, 1556921224251
72, 0.00, -20.62, 0.00, 0.00, 0.000, 0.000, 0.000, 16:07:04.251, 1556921224251
73, 0.00, -18.74, 0.00, 0.00, 0.000, 0.000, 0.000, 16:07:04.264, 1556921224264
74, 0.00, -22.64, 0.00, 0.00, 0.000, 0.000, 0.000, 16:07:04.264, 1556921224264
75, 0.00, -18.33, 0.00, 0.00, 0.000, 0.000, 0.000, 16:07:04.280, 1556921224280
76, 0.00, -21.44, 0.00, 0.00, 0.000, 0.000, 0.000, 16:07:04.280, 1556921224280
77, 0.00, -21.21, 0.00, 0.00, 0.000, 0.000, 0.000, 16:07:04.281, 1556921224281
78, 0.00, -16.25, 0.00, 0.00, 0.000, 0.000, 0.000, 16:07:04.281, 1556921224281
79, 0.00, -17.00, 0.00, 0.00, 0.000, 0.000, 0.000, 16:07:04.294, 1556921224294
80, 0.00, -19.14, 0.00, 0.00, 0.000, 0.000, 0.000, 16:07:04.294, 1556921224294
81, 0.00, -18.88, 0.00, 0.00, 0.000, 0.000, 0.000, 16:07:04.310, 1556921224310
82, 0.00, -25.03, 0.00, 0.00, 0.000, 0.000, 0.000, 16:07:04.310, 1556921224310
83, 0.00, -21.60, 0.00, 0.00, 0.000, 0.000, 0.000, 16:07:04.311, 1556921224311
84, 0.00, -25.52, 0.00, 0.00, 0.000, 0.000, 0.000, 16:07:04.311, 1556921224311
85, 0.00, -29.11, 0.00, 0.00, 0.000, 0.000, 0.000, 16:07:04.326, 1556921224326
86, 0.00, -21.21, 0.00, 0.00, 0.000, 0.000, 0.000, 16:07:04.326, 1556921224326
87, 0.00, -20.44, 0.00, 0.00, 0.000, 0.000, 0.000, 16:07:04.340, 1556921224340
88, 0.00, -21.61, 0.00, 0.00, 0.000, 0.000, 0.000, 16:07:04.340, 1556921224340
89, 0.00, -18.89, 0.00, 0.00, 0.000, 0.000, 0.000, 16:07:04.342, 1556921224342
90, 0.00, -22.27, 0.00, 0.00, 0.000, 0.000, 0.000, 16:07:04.342, 1556921224342
91, 0.00, -25.89, 0.00, 0.00, 0.000, 0.000, 0.000, 16:07:04.355, 1556921224355
92, 0.00, -21.34, 0.00, 0.00, 0.000, 0.000, 0.000, 16:07:04.355, 1556921224355
93, 0.00, -19.69, 0.00, 0.00, 0.000, 0.000, 0.000, 16:07:04.372, 1556921224372
94, 0.00, -20.03, 0.00, 0.00, 0.000, 0.000, 0.000, 16:07:04.372, 1556921224372
95, 0.00, -23.11, 0.00, 0.00, 0.000, 0.000, 0.000, 16:07:04.373, 1556921224373
96, 0.00, -20.17, 0.00, 0.00, 0.000, 0.000, 0.000, 16:07:04.373, 1556921224373
97, 0.00, -22.67, 0.00, 0.00, 0.000, 0.000, 0.000, 16:07:04.384, 1556921224384
98, 0.00, -25.71, 0.00, 0.00, 0.000, 0.000, 0.000, 16:07:04.384, 1556921224384
99, 0.00, -27.02, 0.00, 0.00, 0.000, 0.000, 0.000, 16:07:04.400, 1556921224400
100, 0.00, -25.43, 0.00, 0.00, 0.000, 0.000, 0.000, 16:07:04.400, 1556921224400
101, 0.00, -29.43, 0.00, 0.00, 0.000, 0.000, 0.000, 16:07:04.401, 1556921224401
102, 0.00, -23.76, 0.00, 0.00, 0.000, 0.000, 0.000, 16:07:04.401, 1556921224401
103, 0.00, -23.72, 0.00, 0.00, 0.000, 0.000, 0.000, 16:07:04.415, 1556921224415
104, 0.00, -23.26, 0.00, 0.00, 0.000, 0.000, 0.000, 16:07:04.415, 1556921224415
105, 0.00, -27.31, 0.00, 0.00, 0.000, 0.000, 0.000, 16:07:04.430, 1556921224430
106, 0.00, -26.33, 0.00, 0.00, 0.000, 0.000, 0.000, 16:07:04.430, 1556921224430
107, 0.00, -28.42, 0.00, 0.00, 0.000, 0.000, 0.000, 16:07:04.431, 1556921224431
108, 0.00, -25.52, 0.00, 0.00, 0.000, 0.000, 0.000, 16:07:04.431, 1556921224431
109, 0.00, -25.29, 0.00, 0.00, 0.000, 0.000, 0.000, 16:07:04.444, 1556921224444
110, 0.00, -25.88, 0.00, 0.00, 0.000, 0.000, 0.000, 16:07:04.444, 1556921224444
111, 0.00, -23.76, 0.00, 0.00, 0.000, 0.000, 0.000, 16:07:04.460, 1556921224460
112, 0.00, -26.89, 0.00, 0.00, 0.000, 0.000, 0.000, 16:07:04.460, 1556921224460
113, 0.00, -21.62, 0.00, 0.00, 0.000, 0.000, 0.000, 16:07:04.461, 1556921224461
114, 0.00, -24.77, 0.00, 0.00, 0.000, 0.000, 0.000, 16:07:04.461, 1556921224461
115, 0.00, -22.94, 0.00, 0.00, 0.000, 0.000, 0.000, 16:07:04.474, 1556921224474
116, 0.00, -22.42, 0.00, 0.00, 0.000, 0.000, 0.000, 16:07:04.474, 1556921224474
117, 0.00, -22.35, 0.00, 0.00, 0.000, 0.000, 0.000, 16:07:04.490, 1556921224490
118, 0.00, -25.11, 0.00, 0.00, 0.000, 0.000, 0.000, 16:07:04.490, 1556921224490
119, 0.00, -22.53, 0.00, 0.00, 0.000, 0.000, 0.000, 16:07:04.492, 1556921224492
120, 0.00, -19.18, 0.00, 0.00, 0.000, 0.000, 0.000, 16:07:04.492, 1556921224492
121, 0.00, -18.50, 0.00, 0.00, 0.000, 0.000, 0.000, 16:07:04.504, 1556921224504
122, 0.00, -18.95, 0.00, 0.00, 0.000, 0.000, 0.000, 16:07:04.504, 1556921224504
123, 0.00, -18.75, 0.00, 0.00, 0.000, 0.000, 0.000, 16:07:04.520, 1556921224520
124, 0.00, -23.74, 0.00, 0.00, 0.000, 0.000, 0.000, 16:07:04.520, 1556921224520
125, 0.00, -25.91, 0.00, 0.00, 0.000, 0.000, 0.000, 16:07:04.521, 1556921224521
126, 0.00, -25.99, 0.00, 0.00, 0.000, 0.000, 0.000, 16:07:04.521, 1556921224521
127, 0.00, -28.74, 0.00, 0.00, 0.000, 0.000, 0.000, 16:07:04.534, 1556921224534
128, 0.00, -23.11, 0.00, 0.00, 0.000, 0.000, 0.000, 16:07:04.534, 1556921224534
129, 0.00, -14.93, 0.00, 0.00, 0.000, 0.000, 0.000, 16:07:04.550, 1556921224550
130, 0.00, -18.30, 0.00, 0.00, 0.000, 0.000, 0.000, 16:07:04.550, 1556921224550
131, 0.00, -24.39, 0.00, 0.00, 0.000, 0.000, 0.000, 16:07:04.552, 1556921224552
132, 0.00, -23.75, 0.00, 0.00, 0.000, 0.000, 0.000, 16:07:04.552, 1556921224552
133, 0.00, -17.28, 0.00, 0.00, 0.000, 0.000, 0.000, 16:07:04.564, 1556921224564
134, 0.00, -16.67, 0.00, 0.00, 0.000, 0.000, 0.000, 16:07:04.564, 1556921224564
135, 0.00, -16.55, 0.00, 0.00, 0.000, 0.000, 0.000, 16:07:04.580, 1556921224580
136, 0.00, -17.37, 0.00, 0.00, 0.000, 0.000, 0.000, 16:07:04.580, 1556921224580
137, 0.00, -15.62, 0.00, 0.00, 0.000, 0.000, 0.000, 16:07:04.581, 1556921224581
138, 0.00, -13.80, 0.00, 0.00, 0.000, 0.000, 0.000, 16:07:04.581, 1556921224581
139, 0.00, -9.30, 0.00, 0.00, 0.000, 0.000, 0.000, 16:07:04.594, 1556921224594
140, 0.00, -12.07, 0.00, 0.00, 0.000, 0.000, 0.000, 16:07:04.594, 1556921224594
141, 0.00, -17.92, 0.00, 0.00, 0.000, 0.000, 0.000, 16:07:04.610, 1556921224610
142, 0.00, -13.53, 0.00, 0.00, 0.000, 0.000, 0.000, 16:07:04.610, 1556921224610
143, 0.00, -8.75, 0.00, 0.00, 0.000, 0.000, 0.000, 16:07:04.611, 1556921224611
144, 0.00, -2.67, 0.00, 0.00, 0.000, 0.000, 0.000, 16:07:04.611, 1556921224611
145, 0.00, 3.25, 0.00, 0.00, 0.000, 0.000, 0.000, 16:07:04.625, 1556921224625
146, 0.00, 4.44, 0.00, 0.00, 0.000, 0.000, 0.000, 16:07:04.625, 1556921224625
147, 0.00, 23.26, 0.00, 0.00, 0.000, 0.000, 0.000, 16:07:04.641, 1556921224641
148, 0.00, 37.65, 0.00, 0.00, 0.000, 0.000, 0.000, 16:07:04.641, 1556921224641
149, 0.00, 70.44, 0.00, 0.00, 0.000, 0.000, 0.000, 16:07:04.643, 1556921224643
150, 0.00, 105.48, 0.00, 0.00, 0.000, 0.000, 0.000, 16:07:04.643, 1556921224643
151, 0.00, 136.54, 0.00, 0.00, 0.000, 0.000, 0.000, 16:07:04.654, 1556921224654
152, 0.00, 154.60, 0.00, 0.00, 0.000, 0.000, 0.000, 16:07:04.654, 1556921224654
153, 0.00, 160.51, 0.00, 0.00, 0.000, 0.000, 0.000, 16:07:04.670, 1556921224670
154, 0.00, 165.52, 0.00, 0.00, 0.000, 0.000, 0.000, 16:07:04.670, 1556921224670
155, 0.00, 171.49, 0.00, 0.00, 0.000, 0.000, 0.000, 16:07:04.671, 1556921224671
156, 0.00, 172.41, 0.00, 0.00, 0.000, 0.000, 0.000, 16:07:04.671, 1556921224671
157, 0.00, 172.87, 0.00, 0.00, 0.000, 0.000, 0.000, 16:07:04.684, 1556921224684
158, 0.00, 170.71, 0.00, 0.00, 0.000, 0.000, 0.000, 16:07:04.684, 1556921224684
159, 0.00, 179.41, 0.00, 0.00, 0.000, 0.000, 0.000, 16:07:04.700, 1556921224700
160, 0.00, 181.08, 0.00, 0.00, 0.000, 0.000, 0.000, 16:07:04.700, 1556921224700
161, 0.00, 166.10, 0.00, 0.00, 0.000, 0.000, 0.000, 16:07:04.702, 1556921224702
162, 0.00, 172.92, 0.00, 0.00, 0.000, 0.000, 0.000, 16:07:04.702, 1556921224702
163, 0.00, 167.44, 0.00, 0.00, 0.000, 0.000, 0.000, 16:07:04.714, 1556921224714
164, 0.00, 166.81, 0.00, 0.00, 0.000, 0.000, 0.000, 16:07:04.714, 1556921224714
165, 0.00, 164.71, 0.00, 0.00, 0.000, 0.000, 0.000, 16:07:04.730, 1556921224730
166, 0.00, 166.78, 0.00, 0.00, 0.000, 0.000, 0.000, 16:07:04.730, 1556921224730
167, 0.00, 167.30, 0.00, 0.00, 0.000, 0.000, 0.000, 16:07:04.731, 1556921224731
168, 0.00, 162.85, 0.00, 0.00, 0.000, 0.000, 0.000, 16:07:04.731, 1556921224731
169, 0.00, 158.47, 0.00, 0.00, 0.000, 0.000, 0.000, 16:07:04.744, 1556921224744
170, 0.00, 146.40, 0.00, 0.00, 0.000, 0.000, 0.000, 16:07:04.744, 1556921224744
171, 0.00, 124.68, 0.00, 0.00, 0.000, 0.000, 0.000, 16:07:04.760, 1556921224760
172, 0.00, 114.49, 0.00, 0.00, 0.000, 0.000, 0.000, 16:07:04.760, 1556921224760
173, 0.00, 102.08, 0.00, 0.00, 0.000, 0.000, 0.000, 16:07:04.761, 1556921224761
174, 0.00, 89.28, 0.00, 0.00, 0.000, 0.000, 0.000, 16:07:04.761, 1556921224761
175, 0.00, 82.35, 0.00, 0.00, 0.000, 0.000, 0.000, 16:07:04.774, 1556921224774
176, 0.00, 69.42, 0.00, 0.00, 0.000, 0.000, 0.000, 16:07:04.774, 1556921224774
177, 0.00, 68.45, 0.00, 0.00, 0.000, 0.000, 0.000, 16:07:04.790, 1556921224790
178, 0.00, 62.68, 0.00, 0.00, 0.000, 0.000, 0.000, 16:07:04.790, 1556921224790
179, 0.00, 57.28, 0.00, 0.00, 0.000, 0.000, 0.000, 16:07:04.791, 1556921224791
180, 0.00, 46.19, 0.00, 0.00, 0.000, 0.000, 0.000, 16:07:04.791, 1556921224791
181, 0.00, 42.14, 0.00, 0.00, 0.000, 0.000, 0.000, 16:07:04.804, 1556921224804
182, 0.00, 25.96, 0.00, 0.00, 0.000, 0.000, 0.000, 16:07:04.804, 1556921224804
183, 0.00, 18.53, 0.00, 0.00, 0.000, 0.000, 0.000, 16:07:04.820, 1556921224820
184, 0.00, 25.64, 0.00, 0.00, 0.000, 0.000, 0.000, 16:07:04.820, 1556921224820
185, 0.00, 22.53, 0.00, 0.00, 0.000, 0.000, 0.000, 16:07:04.821, 1556921224821
186, 0.00, 19.74, 0.00, 0.00, 0.000, 0.000, 0.000, 16:07:04.821, 1556921224821
187, 0.00, 15.60, 0.00, 0.00, 0.000, 0.000, 0.000, 16:07:04.834, 1556921224834
188, 0.00, 2.65, 0.00, 0.00, 0.000, 0.000, 0.000, 16:07:04.834, 1556921224834
189, 0.00, 3.38, 0.00, 0.00, 0.000, 0.000, 0.000, 16:07:04.850, 1556921224850
190, 0.00, -1.74, 0.00, 0.00, 0.000, 0.000, 0.000, 16:07:04.850, 1556921224850
191, 0.00, -12.54, 0.00, 0.00, 0.000, 0.000, 0.000, 16:07:04.851, 1556921224851
192, 0.00, -19.53, 0.00, 0.00, 0.000, 0.000, 0.000, 16:07:04.851, 1556921224851
193, 0.00, -27.41, 0.00, 0.00, 0.000, 0.000, 0.000, 16:07:04.864, 1556921224864
194, 0.00, -33.31, 0.00, 0.00, 0.000, 0.000, 0.000, 16:07:04.864, 1556921224864
195, 0.00, -36.76, 0.00, 0.00, 0.000, 0.000, 0.000, 16:07:04.880, 1556921224880
196, 0.00, -42.87, 0.00, 0.00, 0.000, 0.000, 0.000, 16:07:04.880, 1556921224880
197, 0.00, -46.42, 0.00, 0.00, 0.000, 0.000, 0.000, 16:07:04.881, 1556921224881
198, 0.00, -50.56, 0.00, 0.00, 0.000, 0.000, 0.000, 16:07:04.881, 1556921224881
199, 0.00, -53.99, 0.00, 0.00, 0.000, 0.000, 0.000, 16:07:04.895, 1556921224895
200, 0.00, -58.90, 0.00, 0.00, 0.000, 0.000, 0.000, 16:07:04.895, 1556921224895
0, 0.00, -63.48, 0.00, 0.00, 0.000, 0.000, 0.000, 16:07:04.896, 1556921224896
1, 0.00, -62.29, 0.00, 0.00, 0.000, 0.000, 0.000, 16:07:04.913, 1556921224913
2, 0.00, -65.71, 0.00, 0.00, 0.000, 0.000, 0.000, 16:07:04.913, 1556921224913
3, 0.00, -68.67, 0.00, 0.00, 0.000, 0.000, 0.000, 16:07:04.924, 1556921224924
4, 0.00, -67.59, 0.00, 0.00, 0.000, 0.000, 0.000, 16:07:04.924, 1556921224924
5, 0.00, -67.63, 0.00, 0.00, 0.000, 0.000, 0.000, 16:07:04.926, 1556921224926
6, 0.00, -70.71, 0.00, 0.00, 0.000, 0.000, 0.000, 16:07:04.926, 1556921224926
7, 0.00, -73.06, 0.00, 0.00, 0.000, 0.000, 0.000, 16:07:04.939, 1556921224939
8, 0.00, -65.25, 0.00, 0.00, 0.000, 0.000, 0.000, 16:07:04.939, 1556921224939
9, 0.00, -67.36, 0.00, 0.00, 0.000, 0.000, 0.000, 16:07:04.956, 1556921224956
10, 0.00, -69.88, 0.00, 0.00, 0.000, 0.000, 0.000, 16:07:04.956, 1556921224956
11, 0.00, -69.05, 0.00, 0.00, 0.000, 0.000, 0.000, 16:07:04.957, 1556921224957
12, 0.00, -67.58, 0.00, 0.00, 0.000, 0.000, 0.000, 16:07:04.957, 1556921224957
13, 0.00, -64.61, 0.00, 0.00, 0.000, 0.000, 0.000, 16:07:04.970, 1556921224970
14, 0.00, -64.97, 0.00, 0.00, 0.000, 0.000, 0.000, 16:07:04.970, 1556921224970
15, 0.00, -65.79, 0.00, 0.00, 0.000, 0.000, 0.000, 16:07:04.985, 1556921224985
16, 0.00, -60.61, 0.00, 0.00, 0.000, 0.000, 0.000, 16:07:04.985, 1556921224985
17, 0.00, -58.68, 0.00, 0.00, 0.000, 0.000, 0.000, 16:07:04.986, 1556921224986
18, 0.00, -63.13, 0.00, 0.00, 0.000, 0.000, 0.000, 16:07:04.986, 1556921224986
19, 0.00, -53.61, 0.00, 0.00, 0.000, 0.000, 0.000, 16:07:05.000, 1556921225000
20, 0.00, -58.12, 0.00, 0.00, 0.000, 0.000, 0.000, 16:07:05.000, 1556921225000
21, 0.00, -54.47, 0.00, 0.00, 0.000, 0.000, 0.000, 16:07:05.015, 1556921225015
22, 0.00, -53.09, 0.00, 0.00, 0.000, 0.000, 0.000, 16:07:05.015, 1556921225015
23, 0.00, -55.12, 0.00, 0.00, 0.000, 0.000, 0.000, 16:07:05.016, 1556921225016
24, 0.00, -51.48, 0.00, 0.00, 0.000, 0.000, 0.000, 16:07:05.016, 1556921225016
25, 0.00, -47.08, 0.00, 0.00, 0.000, 0.000, 0.000, 16:07:05.030, 1556921225030
26, 0.00, -46.09, 0.00, 0.00, 0.000, 0.000, 0.000, 16:07:05.030, 1556921225030
27, 0.00, -51.36, 0.00, 0.00, 0.000, 0.000, 0.000, 16:07:05.045, 1556921225045
28, 0.00, -51.29, 0.00, 0.00, 0.000, 0.000, 0.000, 16:07:05.045, 1556921225045
29, 0.00, -50.94, 0.00, 0.00, 0.000, 0.000, 0.000, 16:07:05.046, 1556921225046
30, 0.00, -50.91, 0.00, 0.00, 0.000, 0.000, 0.000, 16:07:05.046, 1556921225046
31, 0.00, -46.99, 0.00, 0.00, 0.000, 0.000, 0.000, 16:07:05.060, 1556921225060
32, 0.00, -43.75, 0.00, 0.00, 0.000, 0.000, 0.000, 16:07:05.060, 1556921225060
33, 0.00, -47.93, 0.00, 0.00, 0.000, 0.000, 0.000, 16:07:05.078, 1556921225078
34, 0.00, -46.94, 0.00, 0.00, 0.000, 0.000, 0.000, 16:07:05.078, 1556921225078
35, 0.00, -44.73, 0.00, 0.00, 0.000, 0.000, 0.000, 16:07:05.079, 1556921225079
36, 0.00, -43.99, 0.00, 0.00, 0.000, 0.000, 0.000, 16:07:05.079, 1556921225079
37, 0.00, -50.37, 0.00, 0.00, 0.000, 0.000, 0.000, 16:07:05.090, 1556921225090
38, 0.00, -50.11, 0.00, 0.00, 0.000, 0.000, 0.000, 16:07:05.090, 1556921225090
39, 0.00, -45.74, 0.00, 0.00, 0.000, 0.000, 0.000, 16:07:05.105, 1556921225105
40, 0.00, -42.36, 0.00, 0.00, 0.000, 0.000, 0.000, 16:07:05.105, 1556921225105
41, 0.00, -48.30, 0.00, 0.00, 0.000, 0.000, 0.000, 16:07:05.106, 1556921225106
42, 0.00, -43.02, 0.00, 0.00, 0.000, 0.000, 0.000, 16:07:05.106, 1556921225106
43, 0.00, -45.38, 0.00, 0.00, 0.000, 0.000, 0.000, 16:07:05.119, 1556921225119
44, 0.00, -45.11, 0.00, 0.00, 0.000, 0.000, 0.000, 16:07:05.119, 1556921225119
45, 0.00, -39.40, 0.00, 0.00, 0.000, 0.000, 0.000, 16:07:05.135, 1556921225135
46, 0.00, -44.84, 0.00, 0.00, 0.000, 0.000, 0.000, 16:07:05.135, 1556921225135
47, 0.00, -49.28, 0.00, 0.00, 0.000, 0.000, 0.000, 16:07:05.135, 1556921225135
48, 0.00, -41.04, 0.00, 0.00, 0.000, 0.000, 0.000, 16:07:05.135, 1556921225135
49, 0.00, -38.55, 0.00, 0.00, 0.000, 0.000, 0.000, 16:07:05.149, 1556921225149
50, 0.00, -44.82, 0.00, 0.00, 0.000, 0.000, 0.000, 16:07:05.149, 1556921225149
51, 0.00, -44.20, 0.00, 0.00, 0.000, 0.000, 0.000, 16:07:05.165, 1556921225165
52, 0.00, -44.57, 0.00, 0.00, 0.000, 0.000, 0.000, 16:07:05.165, 1556921225165
53, 0.00, -45.21, 0.00, 0.00, 0.000, 0.000, 0.000, 16:07:05.166, 1556921225166
54, 0.00, -44.85, 0.00, 0.00, 0.000, 0.000, 0.000, 16:07:05.166, 1556921225166
55, 0.00, -41.13, 0.00, 0.00, 0.000, 0.000, 0.000, 16:07:05.179, 1556921225179
56, 0.00, -46.09, 0.00, 0.00, 0.000, 0.000, 0.000, 16:07:05.179, 1556921225179
57, 0.00, -47.83, 0.00, 0.00, 0.000, 0.000, 0.000, 16:07:05.195, 1556921225195
58, 0.00, -45.59, 0.00, 0.00, 0.000, 0.000, 0.000, 16:07:05.195, 1556921225195
59, 0.00, -44.30, 0.00, 0.00, 0.000, 0.000, 0.000, 16:07:05.196, 1556921225196
60, 0.00, -44.54, 0.00, 0.00, 0.000, 0.000, 0.000, 16:07:05.196, 1556921225196
61, 0.00, -44.79, 0.00, 0.00, 0.000, 0.000, 0.000, 16:07:05.210, 1556921225210
62, 0.00, -47.57, 0.00, 0.00, 0.000, 0.000, 0.000, 16:07:05.210, 1556921225210
63, 0.00, -46.90, 0.00, 0.00, 0.000, 0.000, 0.000, 16:07:05.225, 1556921225225
64, 0.00, -43.01, 0.00, 0.00, 0.000, 0.000, 0.000, 16:07:05.225, 1556921225225
65, 0.00, -43.22, 0.00, 0.00, 0.000, 0.000, 0.000, 16:07:05.227, 1556921225227
66, 0.00, -45.66, 0.00, 0.00, 0.000, 0.000, 0.000, 16:07:05.227, 1556921225227
67, 0.00, -47.66, 0.00, 0.00, 0.000, 0.000, 0.000, 16:07:05.239, 1556921225239
68, 0.00, -41.84, 0.00, 0.00, 0.000, 0.000, 0.000, 16:07:05.239, 1556921225239
69, 0.00, -46.08, 0.00, 0.00, 0.000, 0.000, 0.000, 16:07:05.255, 1556921225255
70, 0.00, -47.54, 0.00, 0.00, 0.000, 0.000, 0.000, 16:07:05.255, 1556921225255
71, 0.00, -48.51, 0.00, 0.00, 0.000, 0.000, 0.000, 16:07:05.256, 1556921225256
72, 0.00, -39.66, 0.00, 0.00, 0.000, 0.000, 0.000, 16:07:05.256, 1556921225256
73, 0.00, -46.20, 0.00, 0.00, 0.000, 0.000, 0.000, 16:07:05.269, 1556921225269
74, 0.00, -48.92, 0.00, 0.00, 0.000, 0.000, 0.000, 16:07:05.269, 1556921225269
75, 0.00, -45.65, 0.00, 0.00, 0.000, 0.000, 0.000, 16:07:05.285, 1556921225285
76, 0.00, -42.50, 0.00, 0.00, 0.000, 0.000, 0.000, 16:07:05.285, 1556921225285
77, 0.00, -49.15, 0.00, 0.00, 0.000, 0.000, 0.000, 16:07:05.286, 1556921225286
78, 0.00, -45.52, 0.00, 0.00, 0.000, 0.000, 0.000, 16:07:05.286, 1556921225286
79, 0.00, -44.56, 0.00, 0.00, 0.000, 0.000, 0.000, 16:07:05.299, 1556921225299
80, 0.00, -45.66, 0.00, 0.00, 0.000, 0.000, 0.000, 16:07:05.299, 1556921225299
81, 0.00, -40.85, 0.00, 0.00, 0.000, 0.000, 0.000, 16:07:05.315, 1556921225315
82, 0.00, -36.65, 0.00, 0.00, 0.000, 0.000, 0.000, 16:07:05.315, 1556921225315
83, 0.00, -44.35, 0.00, 0.00, 0.000, 0.000, 0.000, 16:07:05.316, 1556921225316
84, 0.00, -50.86, 0.00, 0.00, 0.000, 0.000, 0.000, 16:07:05.316, 1556921225316
85, 0.00, -44.15, 0.00, 0.00, 0.000, 0.000, 0.000, 16:07:05.330, 1556921225330
86, 0.00, -45.17, 0.00, 0.00, 0.000, 0.000, 0.000, 16:07:05.330, 1556921225330
87, 0.00, -43.84, 0.00, 0.00, 0.000, 0.000, 0.000, 16:07:05.345, 1556921225345
88, 0.00, -43.67, 0.00, 0.00, 0.000, 0.000, 0.000, 16:07:05.345, 1556921225345
89, 0.00, -46.01, 0.00, 0.00, 0.000, 0.000, 0.000, 16:07:05.346, 1556921225346
90, 0.00, -46.13, 0.00, 0.00, 0.000, 0.000, 0.000, 16:07:05.346, 1556921225346
91, 0.00, -43.40, 0.00, 0.00, 0.000, 0.000, 0.000, 16:07:05.376, 1556921225376
92, 0.00, -42.39, 0.00, 0.00, 0.000, 0.000, 0.000, 16:07:05.376, 1556921225376
93, 0.00, -41.87, 0.00, 0.00, 0.000, 0.000, 0.000, 16:07:05.378, 1556921225378
94, 0.00, -41.15, 0.00, 0.00, 0.000, 0.000, 0.000, 16:07:05.378, 1556921225378
95, 0.00, -42.04, 0.00, 0.00, 0.000, 0.000, 0.000, 16:07:05.379, 1556921225379
96, 0.00, -49.97, 0.00, 0.00, 0.000, 0.000, 0.000, 16:07:05.379, 1556921225379
97, 0.00, -52.85, 0.00, 0.00, 0.000, 0.000, 0.000, 16:07:05.390, 1556921225390
98, 0.00, -46.65, 0.00, 0.00, 0.000, 0.000, 0.000, 16:07:05.390, 1556921225390
99, 0.00, -41.65, 0.00, 0.00, 0.000, 0.000, 0.000, 16:07:05.406, 1556921225406
100, 0.00, -37.11, 0.00, 0.00, 0.000, 0.000, 0.000, 16:07:05.406, 1556921225406
101, 0.00, -39.37, 0.00, 0.00, 0.000, 0.000, 0.000, 16:07:05.408, 1556921225408
102, 0.00, -41.73, 0.00, 0.00, 0.000, 0.000, 0.000, 16:07:05.408, 1556921225408
103, 0.00, -46.22, 0.00, 0.00, 0.000, 0.000, 0.000, 16:07:05.419, 1556921225419
104, 0.00, -48.05, 0.00, 0.00, 0.000, 0.000, 0.000, 16:07:05.419, 1556921225419
